#  E (eV)   dos(E)     Int dos(E) EFermi =    8.329 eV
  -3.191  0.6976E-02  0.2206E-03
  -3.181  0.8525E-02  0.2979E-03
  -3.171  0.1023E-01  0.3916E-03
  -3.161  0.1209E-01  0.5030E-03
  -3.151  0.1410E-01  0.6338E-03
  -3.141  0.1627E-01  0.7856E-03
  -3.131  0.1859E-01  0.9597E-03
  -3.121  0.2107E-01  0.1158E-02
  -3.111  0.2371E-01  0.1382E-02
  -3.101  0.2650E-01  0.1633E-02
  -3.091  0.2944E-01  0.1912E-02
  -3.081  0.3254E-01  0.2222E-02
  -3.071  0.3579E-01  0.2563E-02
  -3.061  0.3920E-01  0.2938E-02
  -3.051  0.4277E-01  0.3348E-02
  -3.041  0.4649E-01  0.3794E-02
  -3.031  0.5036E-01  0.4278E-02
  -3.021  0.5439E-01  0.4802E-02
  -3.011  0.5858E-01  0.5367E-02
  -3.001  0.6292E-01  0.5974E-02
  -2.991  0.6041E-01  0.6590E-02
  -2.981  0.5832E-01  0.7183E-02
  -2.971  0.5659E-01  0.7758E-02
  -2.961  0.5522E-01  0.8316E-02
  -2.951  0.5421E-01  0.8863E-02
  -2.941  0.5355E-01  0.9402E-02
  -2.931  0.5326E-01  0.9936E-02
  -2.921  0.5333E-01  0.1047E-01
  -2.911  0.5375E-01  0.1100E-01
  -2.901  0.5451E-01  0.1154E-01
  -2.891  0.5536E-01  0.1209E-01
  -2.881  0.5621E-01  0.1265E-01
  -2.871  0.5707E-01  0.1322E-01
  -2.861  0.5793E-01  0.1379E-01
  -2.851  0.5879E-01  0.1438E-01
  -2.841  0.5966E-01  0.1497E-01
  -2.831  0.6054E-01  0.1557E-01
  -2.821  0.6142E-01  0.1618E-01
  -2.811  0.6231E-01  0.1680E-01
  -2.801  0.6320E-01  0.1743E-01
  -2.791  0.6409E-01  0.1806E-01
  -2.781  0.6500E-01  0.1871E-01
  -2.771  0.6590E-01  0.1936E-01
  -2.761  0.6682E-01  0.2003E-01
  -2.751  0.6773E-01  0.2070E-01
  -2.741  0.6866E-01  0.2138E-01
  -2.731  0.6958E-01  0.2207E-01
  -2.721  0.7052E-01  0.2277E-01
  -2.711  0.7145E-01  0.2348E-01
  -2.701  0.7240E-01  0.2420E-01
  -2.691  0.7335E-01  0.2493E-01
  -2.681  0.7430E-01  0.2567E-01
  -2.671  0.7526E-01  0.2642E-01
  -2.661  0.7622E-01  0.2717E-01
  -2.651  0.7719E-01  0.2794E-01
  -2.641  0.7816E-01  0.2872E-01
  -2.631  0.7914E-01  0.2950E-01
  -2.621  0.8013E-01  0.3030E-01
  -2.611  0.8112E-01  0.3111E-01
  -2.601  0.8211E-01  0.3192E-01
  -2.591  0.8311E-01  0.3275E-01
  -2.581  0.8412E-01  0.3358E-01
  -2.571  0.8513E-01  0.3443E-01
  -2.561  0.8614E-01  0.3529E-01
  -2.551  0.8716E-01  0.3615E-01
  -2.541  0.8819E-01  0.3703E-01
  -2.531  0.8922E-01  0.3792E-01
  -2.521  0.9025E-01  0.3882E-01
  -2.511  0.9125E-01  0.3972E-01
  -2.501  0.9220E-01  0.4064E-01
  -2.491  0.9312E-01  0.4157E-01
  -2.481  0.9401E-01  0.4250E-01
  -2.471  0.9485E-01  0.4345E-01
  -2.461  0.9567E-01  0.4440E-01
  -2.451  0.9644E-01  0.4536E-01
  -2.441  0.9718E-01  0.4633E-01
  -2.431  0.9788E-01  0.4730E-01
  -2.421  0.9855E-01  0.4829E-01
  -2.411  0.9918E-01  0.4927E-01
  -2.401  0.9977E-01  0.5027E-01
  -2.391  0.1003E+00  0.5127E-01
  -2.381  0.1009E+00  0.5228E-01
  -2.371  0.1013E+00  0.5329E-01
  -2.361  0.1018E+00  0.5430E-01
  -2.351  0.1022E+00  0.5532E-01
  -2.341  0.1026E+00  0.5635E-01
  -2.331  0.1029E+00  0.5737E-01
  -2.321  0.1032E+00  0.5840E-01
  -2.311  0.1035E+00  0.5944E-01
  -2.301  0.1037E+00  0.6047E-01
  -2.291  0.1039E+00  0.6151E-01
  -2.281  0.1041E+00  0.6255E-01
  -2.271  0.1042E+00  0.6359E-01
  -2.261  0.1043E+00  0.6464E-01
  -2.251  0.1043E+00  0.6568E-01
  -2.241  0.1043E+00  0.6672E-01
  -2.231  0.1045E+00  0.6777E-01
  -2.221  0.1048E+00  0.6881E-01
  -2.211  0.1051E+00  0.6986E-01
  -2.201  0.1054E+00  0.7091E-01
  -2.191  0.1058E+00  0.7197E-01
  -2.181  0.1062E+00  0.7303E-01
  -2.171  0.1066E+00  0.7409E-01
  -2.161  0.1071E+00  0.7516E-01
  -2.151  0.1076E+00  0.7623E-01
  -2.141  0.1081E+00  0.7731E-01
  -2.131  0.1087E+00  0.7840E-01
  -2.121  0.1092E+00  0.7949E-01
  -2.111  0.1098E+00  0.8058E-01
  -2.101  0.1103E+00  0.8168E-01
  -2.091  0.1109E+00  0.8279E-01
  -2.081  0.1114E+00  0.8390E-01
  -2.071  0.1120E+00  0.8502E-01
  -2.061  0.1126E+00  0.8614E-01
  -2.051  0.1131E+00  0.8727E-01
  -2.041  0.1137E+00  0.8840E-01
  -2.031  0.1142E+00  0.8954E-01
  -2.021  0.1148E+00  0.9069E-01
  -2.011  0.1154E+00  0.9184E-01
  -2.001  0.1159E+00  0.9299E-01
  -1.991  0.1165E+00  0.9416E-01
  -1.981  0.1171E+00  0.9532E-01
  -1.971  0.1176E+00  0.9650E-01
  -1.961  0.1182E+00  0.9768E-01
  -1.951  0.1188E+00  0.9886E-01
  -1.941  0.1193E+00  0.1001E+00
  -1.931  0.1199E+00  0.1012E+00
  -1.921  0.1205E+00  0.1025E+00
  -1.911  0.1211E+00  0.1037E+00
  -1.901  0.1216E+00  0.1049E+00
  -1.891  0.1222E+00  0.1061E+00
  -1.881  0.1228E+00  0.1073E+00
  -1.871  0.1234E+00  0.1085E+00
  -1.861  0.1240E+00  0.1098E+00
  -1.851  0.1245E+00  0.1110E+00
  -1.841  0.1251E+00  0.1123E+00
  -1.831  0.1257E+00  0.1135E+00
  -1.821  0.1263E+00  0.1148E+00
  -1.811  0.1269E+00  0.1161E+00
  -1.801  0.1275E+00  0.1173E+00
  -1.791  0.1281E+00  0.1186E+00
  -1.781  0.1286E+00  0.1199E+00
  -1.771  0.1292E+00  0.1212E+00
  -1.761  0.1298E+00  0.1225E+00
  -1.751  0.1304E+00  0.1238E+00
  -1.741  0.1310E+00  0.1251E+00
  -1.731  0.1316E+00  0.1264E+00
  -1.721  0.1322E+00  0.1277E+00
  -1.711  0.1328E+00  0.1290E+00
  -1.701  0.1334E+00  0.1304E+00
  -1.691  0.1340E+00  0.1317E+00
  -1.681  0.1346E+00  0.1330E+00
  -1.671  0.1352E+00  0.1344E+00
  -1.661  0.1358E+00  0.1358E+00
  -1.651  0.1364E+00  0.1371E+00
  -1.641  0.1370E+00  0.1385E+00
  -1.631  0.1376E+00  0.1399E+00
  -1.621  0.1382E+00  0.1412E+00
  -1.611  0.1389E+00  0.1426E+00
  -1.601  0.1395E+00  0.1440E+00
  -1.591  0.1401E+00  0.1454E+00
  -1.581  0.1407E+00  0.1468E+00
  -1.571  0.1413E+00  0.1482E+00
  -1.561  0.1419E+00  0.1496E+00
  -1.551  0.1425E+00  0.1511E+00
  -1.541  0.1432E+00  0.1525E+00
  -1.531  0.1438E+00  0.1539E+00
  -1.521  0.1444E+00  0.1554E+00
  -1.511  0.1450E+00  0.1568E+00
  -1.501  0.1457E+00  0.1583E+00
  -1.491  0.1463E+00  0.1597E+00
  -1.481  0.1463E+00  0.1612E+00
  -1.471  0.1462E+00  0.1627E+00
  -1.461  0.1462E+00  0.1641E+00
  -1.451  0.1462E+00  0.1656E+00
  -1.441  0.1463E+00  0.1670E+00
  -1.431  0.1465E+00  0.1685E+00
  -1.421  0.1466E+00  0.1700E+00
  -1.411  0.1469E+00  0.1714E+00
  -1.401  0.1472E+00  0.1729E+00
  -1.391  0.1475E+00  0.1744E+00
  -1.381  0.1479E+00  0.1759E+00
  -1.371  0.1483E+00  0.1773E+00
  -1.361  0.1486E+00  0.1788E+00
  -1.351  0.1490E+00  0.1803E+00
  -1.341  0.1494E+00  0.1818E+00
  -1.331  0.1497E+00  0.1833E+00
  -1.321  0.1501E+00  0.1848E+00
  -1.311  0.1505E+00  0.1863E+00
  -1.301  0.1508E+00  0.1878E+00
  -1.291  0.1512E+00  0.1893E+00
  -1.281  0.1515E+00  0.1908E+00
  -1.271  0.1519E+00  0.1923E+00
  -1.261  0.1523E+00  0.1939E+00
  -1.251  0.1526E+00  0.1954E+00
  -1.241  0.1530E+00  0.1969E+00
  -1.231  0.1533E+00  0.1985E+00
  -1.221  0.1537E+00  0.2000E+00
  -1.211  0.1541E+00  0.2015E+00
  -1.201  0.1544E+00  0.2031E+00
  -1.191  0.1548E+00  0.2046E+00
  -1.181  0.1551E+00  0.2062E+00
  -1.171  0.1555E+00  0.2077E+00
  -1.161  0.1558E+00  0.2093E+00
  -1.151  0.1562E+00  0.2108E+00
  -1.141  0.1565E+00  0.2124E+00
  -1.131  0.1569E+00  0.2140E+00
  -1.121  0.1572E+00  0.2155E+00
  -1.111  0.1576E+00  0.2171E+00
  -1.101  0.1579E+00  0.2187E+00
  -1.091  0.1583E+00  0.2203E+00
  -1.081  0.1586E+00  0.2218E+00
  -1.071  0.1589E+00  0.2234E+00
  -1.061  0.1593E+00  0.2250E+00
  -1.051  0.1596E+00  0.2266E+00
  -1.041  0.1600E+00  0.2282E+00
  -1.031  0.1603E+00  0.2298E+00
  -1.021  0.1607E+00  0.2314E+00
  -1.011  0.1610E+00  0.2330E+00
  -1.001  0.1613E+00  0.2346E+00
  -0.991  0.1617E+00  0.2363E+00
  -0.981  0.1620E+00  0.2379E+00
  -0.971  0.1624E+00  0.2395E+00
  -0.961  0.1627E+00  0.2411E+00
  -0.951  0.1631E+00  0.2428E+00
  -0.941  0.1634E+00  0.2444E+00
  -0.931  0.1638E+00  0.2460E+00
  -0.921  0.1641E+00  0.2477E+00
  -0.911  0.1645E+00  0.2493E+00
  -0.901  0.1649E+00  0.2510E+00
  -0.891  0.1652E+00  0.2526E+00
  -0.881  0.1656E+00  0.2543E+00
  -0.871  0.1660E+00  0.2559E+00
  -0.861  0.1663E+00  0.2576E+00
  -0.851  0.1667E+00  0.2592E+00
  -0.841  0.1671E+00  0.2609E+00
  -0.831  0.1675E+00  0.2626E+00
  -0.821  0.1679E+00  0.2643E+00
  -0.811  0.1683E+00  0.2659E+00
  -0.801  0.1687E+00  0.2676E+00
  -0.791  0.1690E+00  0.2693E+00
  -0.781  0.1694E+00  0.2710E+00
  -0.771  0.1698E+00  0.2727E+00
  -0.761  0.1702E+00  0.2744E+00
  -0.751  0.1706E+00  0.2761E+00
  -0.741  0.1711E+00  0.2778E+00
  -0.731  0.1714E+00  0.2795E+00
  -0.721  0.1719E+00  0.2812E+00
  -0.711  0.1723E+00  0.2830E+00
  -0.701  0.1727E+00  0.2847E+00
  -0.691  0.1732E+00  0.2864E+00
  -0.681  0.1736E+00  0.2882E+00
  -0.671  0.1741E+00  0.2899E+00
  -0.661  0.1745E+00  0.2916E+00
  -0.651  0.1750E+00  0.2934E+00
  -0.641  0.1754E+00  0.2951E+00
  -0.631  0.1758E+00  0.2969E+00
  -0.621  0.1763E+00  0.2987E+00
  -0.611  0.1767E+00  0.3004E+00
  -0.601  0.1772E+00  0.3022E+00
  -0.591  0.1776E+00  0.3040E+00
  -0.581  0.1781E+00  0.3057E+00
  -0.571  0.1785E+00  0.3075E+00
  -0.561  0.1789E+00  0.3093E+00
  -0.551  0.1794E+00  0.3111E+00
  -0.541  0.1798E+00  0.3129E+00
  -0.531  0.1803E+00  0.3147E+00
  -0.521  0.1807E+00  0.3165E+00
  -0.511  0.1812E+00  0.3183E+00
  -0.501  0.1816E+00  0.3201E+00
  -0.491  0.1821E+00  0.3219E+00
  -0.481  0.1825E+00  0.3238E+00
  -0.471  0.1830E+00  0.3256E+00
  -0.461  0.1834E+00  0.3274E+00
  -0.451  0.1839E+00  0.3293E+00
  -0.441  0.1843E+00  0.3311E+00
  -0.431  0.1848E+00  0.3330E+00
  -0.421  0.1852E+00  0.3348E+00
  -0.411  0.1857E+00  0.3367E+00
  -0.401  0.1861E+00  0.3385E+00
  -0.391  0.1866E+00  0.3404E+00
  -0.381  0.1870E+00  0.3422E+00
  -0.371  0.1875E+00  0.3441E+00
  -0.361  0.1879E+00  0.3460E+00
  -0.351  0.1884E+00  0.3479E+00
  -0.341  0.1889E+00  0.3498E+00
  -0.331  0.1893E+00  0.3517E+00
  -0.321  0.1898E+00  0.3536E+00
  -0.311  0.1902E+00  0.3555E+00
  -0.301  0.1907E+00  0.3574E+00
  -0.291  0.1911E+00  0.3593E+00
  -0.281  0.1916E+00  0.3612E+00
  -0.271  0.1920E+00  0.3631E+00
  -0.261  0.1925E+00  0.3650E+00
  -0.251  0.1929E+00  0.3669E+00
  -0.241  0.1933E+00  0.3689E+00
  -0.231  0.1937E+00  0.3708E+00
  -0.221  0.1940E+00  0.3727E+00
  -0.211  0.1944E+00  0.3747E+00
  -0.201  0.1948E+00  0.3766E+00
  -0.191  0.1951E+00  0.3786E+00
  -0.181  0.1955E+00  0.3805E+00
  -0.171  0.1958E+00  0.3825E+00
  -0.161  0.1961E+00  0.3845E+00
  -0.151  0.1964E+00  0.3864E+00
  -0.141  0.1967E+00  0.3884E+00
  -0.131  0.1970E+00  0.3904E+00
  -0.121  0.1973E+00  0.3923E+00
  -0.111  0.1976E+00  0.3943E+00
  -0.101  0.1978E+00  0.3963E+00
  -0.091  0.1981E+00  0.3983E+00
  -0.081  0.1983E+00  0.4002E+00
  -0.071  0.1986E+00  0.4022E+00
  -0.061  0.1988E+00  0.4042E+00
  -0.051  0.1990E+00  0.4062E+00
  -0.041  0.1992E+00  0.4082E+00
  -0.031  0.1994E+00  0.4102E+00
  -0.021  0.1996E+00  0.4122E+00
  -0.011  0.1997E+00  0.4142E+00
  -0.001  0.1998E+00  0.4162E+00
   0.009  0.2000E+00  0.4182E+00
   0.019  0.2001E+00  0.4202E+00
   0.029  0.2003E+00  0.4222E+00
   0.039  0.2005E+00  0.4242E+00
   0.049  0.2007E+00  0.4262E+00
   0.059  0.2009E+00  0.4282E+00
   0.069  0.2012E+00  0.4302E+00
   0.079  0.2014E+00  0.4322E+00
   0.089  0.2017E+00  0.4342E+00
   0.099  0.2020E+00  0.4362E+00
   0.109  0.2023E+00  0.4383E+00
   0.119  0.2025E+00  0.4403E+00
   0.129  0.2028E+00  0.4423E+00
   0.139  0.2031E+00  0.4443E+00
   0.149  0.2033E+00  0.4464E+00
   0.159  0.2036E+00  0.4484E+00
   0.169  0.2038E+00  0.4505E+00
   0.179  0.2041E+00  0.4525E+00
   0.189  0.2043E+00  0.4545E+00
   0.199  0.2046E+00  0.4566E+00
   0.209  0.2049E+00  0.4586E+00
   0.219  0.2051E+00  0.4607E+00
   0.229  0.2054E+00  0.4627E+00
   0.239  0.2057E+00  0.4648E+00
   0.249  0.2060E+00  0.4668E+00
   0.259  0.2062E+00  0.4689E+00
   0.269  0.2065E+00  0.4710E+00
   0.279  0.2068E+00  0.4730E+00
   0.289  0.2071E+00  0.4751E+00
   0.299  0.2074E+00  0.4772E+00
   0.309  0.2077E+00  0.4793E+00
   0.319  0.2079E+00  0.4813E+00
   0.329  0.2082E+00  0.4834E+00
   0.339  0.2085E+00  0.4855E+00
   0.349  0.2088E+00  0.4876E+00
   0.359  0.2091E+00  0.4897E+00
   0.369  0.2094E+00  0.4918E+00
   0.379  0.2097E+00  0.4939E+00
   0.389  0.2100E+00  0.4960E+00
   0.399  0.2103E+00  0.4981E+00
   0.409  0.2106E+00  0.5002E+00
   0.419  0.2109E+00  0.5023E+00
   0.429  0.2112E+00  0.5044E+00
   0.439  0.2115E+00  0.5065E+00
   0.449  0.2119E+00  0.5086E+00
   0.459  0.2122E+00  0.5107E+00
   0.469  0.2125E+00  0.5129E+00
   0.479  0.2128E+00  0.5150E+00
   0.489  0.2131E+00  0.5171E+00
   0.499  0.2134E+00  0.5192E+00
   0.509  0.2138E+00  0.5214E+00
   0.519  0.2141E+00  0.5235E+00
   0.529  0.2144E+00  0.5257E+00
   0.539  0.2147E+00  0.5278E+00
   0.549  0.2151E+00  0.5300E+00
   0.559  0.2154E+00  0.5321E+00
   0.569  0.2157E+00  0.5343E+00
   0.579  0.2160E+00  0.5364E+00
   0.589  0.2164E+00  0.5386E+00
   0.599  0.2167E+00  0.5408E+00
   0.609  0.2170E+00  0.5429E+00
   0.619  0.2174E+00  0.5451E+00
   0.629  0.2177E+00  0.5473E+00
   0.639  0.2181E+00  0.5494E+00
   0.649  0.2184E+00  0.5516E+00
   0.659  0.2188E+00  0.5538E+00
   0.669  0.2191E+00  0.5560E+00
   0.679  0.2195E+00  0.5582E+00
   0.689  0.2198E+00  0.5604E+00
   0.699  0.2202E+00  0.5626E+00
   0.709  0.2205E+00  0.5648E+00
   0.719  0.2209E+00  0.5670E+00
   0.729  0.2212E+00  0.5692E+00
   0.739  0.2216E+00  0.5714E+00
   0.749  0.2218E+00  0.5736E+00
   0.759  0.2221E+00  0.5759E+00
   0.769  0.2223E+00  0.5781E+00
   0.779  0.2226E+00  0.5803E+00
   0.789  0.2227E+00  0.5825E+00
   0.799  0.2229E+00  0.5848E+00
   0.809  0.2230E+00  0.5870E+00
   0.819  0.2232E+00  0.5892E+00
   0.829  0.2233E+00  0.5915E+00
   0.839  0.2235E+00  0.5937E+00
   0.849  0.2237E+00  0.5959E+00
   0.859  0.2240E+00  0.5982E+00
   0.869  0.2242E+00  0.6004E+00
   0.879  0.2245E+00  0.6027E+00
   0.889  0.2247E+00  0.6049E+00
   0.899  0.2250E+00  0.6071E+00
   0.909  0.2252E+00  0.6094E+00
   0.919  0.2255E+00  0.6117E+00
   0.929  0.2258E+00  0.6139E+00
   0.939  0.2261E+00  0.6162E+00
   0.949  0.2263E+00  0.6184E+00
   0.959  0.2266E+00  0.6207E+00
   0.969  0.2269E+00  0.6230E+00
   0.979  0.2272E+00  0.6252E+00
   0.989  0.2275E+00  0.6275E+00
   0.999  0.2277E+00  0.6298E+00
   1.009  0.2280E+00  0.6321E+00
   1.019  0.2283E+00  0.6343E+00
   1.029  0.2286E+00  0.6366E+00
   1.039  0.2289E+00  0.6389E+00
   1.049  0.2292E+00  0.6412E+00
   1.059  0.2295E+00  0.6435E+00
   1.069  0.2299E+00  0.6458E+00
   1.079  0.2302E+00  0.6481E+00
   1.089  0.2305E+00  0.6504E+00
   1.099  0.2308E+00  0.6527E+00
   1.109  0.2311E+00  0.6550E+00
   1.119  0.2315E+00  0.6573E+00
   1.129  0.2318E+00  0.6596E+00
   1.139  0.2321E+00  0.6620E+00
   1.149  0.2324E+00  0.6643E+00
   1.159  0.2328E+00  0.6666E+00
   1.169  0.2331E+00  0.6689E+00
   1.179  0.2335E+00  0.6713E+00
   1.189  0.2338E+00  0.6736E+00
   1.199  0.2342E+00  0.6760E+00
   1.209  0.2346E+00  0.6783E+00
   1.219  0.2350E+00  0.6806E+00
   1.229  0.2354E+00  0.6830E+00
   1.239  0.2358E+00  0.6854E+00
   1.249  0.2362E+00  0.6877E+00
   1.259  0.2365E+00  0.6901E+00
   1.269  0.2369E+00  0.6924E+00
   1.279  0.2373E+00  0.6948E+00
   1.289  0.2377E+00  0.6972E+00
   1.299  0.2381E+00  0.6996E+00
   1.309  0.2384E+00  0.7020E+00
   1.319  0.2388E+00  0.7043E+00
   1.329  0.2392E+00  0.7067E+00
   1.339  0.2396E+00  0.7091E+00
   1.349  0.2400E+00  0.7115E+00
   1.359  0.2403E+00  0.7139E+00
   1.369  0.2407E+00  0.7163E+00
   1.379  0.2411E+00  0.7187E+00
   1.389  0.2415E+00  0.7211E+00
   1.399  0.2418E+00  0.7236E+00
   1.409  0.2422E+00  0.7260E+00
   1.419  0.2426E+00  0.7284E+00
   1.429  0.2430E+00  0.7308E+00
   1.439  0.2434E+00  0.7333E+00
   1.449  0.2437E+00  0.7357E+00
   1.459  0.2439E+00  0.7381E+00
   1.469  0.2433E+00  0.7406E+00
   1.479  0.2437E+00  0.7430E+00
   1.489  0.2440E+00  0.7455E+00
   1.499  0.2442E+00  0.7479E+00
   1.509  0.2442E+00  0.7503E+00
   1.519  0.2441E+00  0.7528E+00
   1.529  0.2439E+00  0.7552E+00
   1.539  0.2436E+00  0.7577E+00
   1.549  0.2433E+00  0.7601E+00
   1.559  0.2431E+00  0.7625E+00
   1.569  0.2429E+00  0.7650E+00
   1.579  0.2429E+00  0.7674E+00
   1.589  0.2430E+00  0.7698E+00
   1.599  0.2431E+00  0.7722E+00
   1.609  0.2433E+00  0.7747E+00
   1.619  0.2434E+00  0.7771E+00
   1.629  0.2435E+00  0.7795E+00
   1.639  0.2437E+00  0.7820E+00
   1.649  0.2438E+00  0.7844E+00
   1.659  0.2440E+00  0.7869E+00
   1.669  0.2441E+00  0.7893E+00
   1.679  0.2443E+00  0.7917E+00
   1.689  0.2445E+00  0.7942E+00
   1.699  0.2447E+00  0.7966E+00
   1.709  0.2449E+00  0.7991E+00
   1.719  0.2451E+00  0.8015E+00
   1.729  0.2453E+00  0.8040E+00
   1.739  0.2456E+00  0.8064E+00
   1.749  0.2458E+00  0.8089E+00
   1.759  0.2460E+00  0.8113E+00
   1.769  0.2463E+00  0.8138E+00
   1.779  0.2466E+00  0.8163E+00
   1.789  0.2468E+00  0.8187E+00
   1.799  0.2471E+00  0.8212E+00
   1.809  0.2474E+00  0.8237E+00
   1.819  0.2477E+00  0.8262E+00
   1.829  0.2480E+00  0.8286E+00
   1.839  0.2483E+00  0.8311E+00
   1.849  0.2486E+00  0.8336E+00
   1.859  0.2490E+00  0.8361E+00
   1.869  0.2493E+00  0.8386E+00
   1.879  0.2497E+00  0.8411E+00
   1.889  0.2500E+00  0.8436E+00
   1.899  0.2504E+00  0.8461E+00
   1.909  0.2508E+00  0.8486E+00
   1.919  0.2511E+00  0.8511E+00
   1.929  0.2515E+00  0.8536E+00
   1.939  0.2519E+00  0.8561E+00
   1.949  0.2522E+00  0.8586E+00
   1.959  0.2525E+00  0.8612E+00
   1.969  0.2527E+00  0.8637E+00
   1.979  0.2529E+00  0.8662E+00
   1.989  0.2530E+00  0.8688E+00
   1.999  0.2530E+00  0.8713E+00
   2.009  0.2531E+00  0.8738E+00
   2.019  0.2530E+00  0.8763E+00
   2.029  0.2529E+00  0.8789E+00
   2.039  0.2528E+00  0.8814E+00
   2.049  0.2526E+00  0.8839E+00
   2.059  0.2523E+00  0.8865E+00
   2.069  0.2520E+00  0.8890E+00
   2.079  0.2517E+00  0.8915E+00
   2.089  0.2513E+00  0.8940E+00
   2.099  0.2509E+00  0.8965E+00
   2.109  0.2505E+00  0.8990E+00
   2.119  0.2501E+00  0.9015E+00
   2.129  0.2497E+00  0.9040E+00
   2.139  0.2494E+00  0.9065E+00
   2.149  0.2490E+00  0.9090E+00
   2.159  0.2486E+00  0.9115E+00
   2.169  0.2483E+00  0.9140E+00
   2.179  0.2481E+00  0.9165E+00
   2.189  0.2477E+00  0.9189E+00
   2.199  0.2478E+00  0.9214E+00
   2.209  0.2480E+00  0.9239E+00
   2.219  0.2483E+00  0.9264E+00
   2.229  0.2487E+00  0.9289E+00
   2.239  0.2491E+00  0.9314E+00
   2.249  0.2496E+00  0.9339E+00
   2.259  0.2500E+00  0.9363E+00
   2.269  0.2505E+00  0.9389E+00
   2.279  0.2509E+00  0.9414E+00
   2.289  0.2514E+00  0.9439E+00
   2.299  0.2518E+00  0.9464E+00
   2.309  0.2522E+00  0.9489E+00
   2.319  0.2526E+00  0.9514E+00
   2.329  0.2530E+00  0.9540E+00
   2.339  0.2534E+00  0.9565E+00
   2.349  0.2537E+00  0.9590E+00
   2.359  0.2541E+00  0.9616E+00
   2.369  0.2544E+00  0.9641E+00
   2.379  0.2548E+00  0.9667E+00
   2.389  0.2551E+00  0.9692E+00
   2.399  0.2555E+00  0.9718E+00
   2.409  0.2558E+00  0.9743E+00
   2.419  0.2561E+00  0.9769E+00
   2.429  0.2565E+00  0.9794E+00
   2.439  0.2568E+00  0.9820E+00
   2.449  0.2571E+00  0.9846E+00
   2.459  0.2574E+00  0.9871E+00
   2.469  0.2578E+00  0.9897E+00
   2.479  0.2582E+00  0.9923E+00
   2.489  0.2586E+00  0.9949E+00
   2.499  0.2590E+00  0.9975E+00
   2.509  0.2595E+00  0.1000E+01
   2.519  0.2599E+00  0.1003E+01
   2.529  0.2604E+00  0.1005E+01
   2.539  0.2609E+00  0.1008E+01
   2.549  0.2615E+00  0.1010E+01
   2.559  0.2620E+00  0.1013E+01
   2.569  0.2626E+00  0.1016E+01
   2.579  0.2632E+00  0.1018E+01
   2.589  0.2639E+00  0.1021E+01
   2.599  0.2645E+00  0.1024E+01
   2.609  0.2652E+00  0.1026E+01
   2.619  0.2659E+00  0.1029E+01
   2.629  0.2666E+00  0.1032E+01
   2.639  0.2673E+00  0.1034E+01
   2.649  0.2680E+00  0.1037E+01
   2.659  0.2687E+00  0.1040E+01
   2.669  0.2695E+00  0.1042E+01
   2.679  0.2703E+00  0.1045E+01
   2.689  0.2711E+00  0.1048E+01
   2.699  0.2720E+00  0.1050E+01
   2.709  0.2728E+00  0.1053E+01
   2.719  0.2737E+00  0.1056E+01
   2.729  0.2746E+00  0.1059E+01
   2.739  0.2755E+00  0.1061E+01
   2.749  0.2765E+00  0.1064E+01
   2.759  0.2774E+00  0.1067E+01
   2.769  0.2784E+00  0.1070E+01
   2.779  0.2794E+00  0.1072E+01
   2.789  0.2804E+00  0.1075E+01
   2.799  0.2815E+00  0.1078E+01
   2.809  0.2826E+00  0.1081E+01
   2.819  0.2836E+00  0.1084E+01
   2.829  0.2848E+00  0.1087E+01
   2.839  0.2859E+00  0.1089E+01
   2.849  0.2871E+00  0.1092E+01
   2.859  0.2882E+00  0.1095E+01
   2.869  0.2894E+00  0.1098E+01
   2.879  0.2907E+00  0.1101E+01
   2.889  0.2919E+00  0.1104E+01
   2.899  0.2932E+00  0.1107E+01
   2.909  0.2945E+00  0.1110E+01
   2.919  0.2959E+00  0.1113E+01
   2.929  0.2972E+00  0.1116E+01
   2.939  0.2986E+00  0.1119E+01
   2.949  0.3000E+00  0.1122E+01
   2.959  0.3014E+00  0.1125E+01
   2.969  0.3027E+00  0.1128E+01
   2.979  0.3040E+00  0.1131E+01
   2.989  0.3053E+00  0.1134E+01
   2.999  0.3065E+00  0.1137E+01
   3.009  0.3077E+00  0.1140E+01
   3.019  0.3089E+00  0.1143E+01
   3.029  0.3100E+00  0.1146E+01
   3.039  0.3111E+00  0.1149E+01
   3.049  0.3121E+00  0.1152E+01
   3.059  0.3132E+00  0.1155E+01
   3.069  0.3144E+00  0.1159E+01
   3.079  0.3155E+00  0.1162E+01
   3.089  0.3167E+00  0.1165E+01
   3.099  0.3178E+00  0.1168E+01
   3.109  0.3189E+00  0.1171E+01
   3.119  0.3200E+00  0.1174E+01
   3.129  0.3211E+00  0.1178E+01
   3.139  0.3221E+00  0.1181E+01
   3.149  0.3232E+00  0.1184E+01
   3.159  0.3242E+00  0.1187E+01
   3.169  0.3251E+00  0.1191E+01
   3.179  0.3259E+00  0.1194E+01
   3.189  0.3265E+00  0.1197E+01
   3.199  0.3271E+00  0.1200E+01
   3.209  0.3275E+00  0.1204E+01
   3.219  0.3278E+00  0.1207E+01
   3.229  0.3279E+00  0.1210E+01
   3.239  0.3280E+00  0.1213E+01
   3.249  0.3279E+00  0.1217E+01
   3.259  0.3277E+00  0.1220E+01
   3.269  0.3273E+00  0.1223E+01
   3.279  0.3269E+00  0.1227E+01
   3.289  0.3263E+00  0.1230E+01
   3.299  0.3256E+00  0.1233E+01
   3.309  0.3247E+00  0.1236E+01
   3.319  0.3238E+00  0.1240E+01
   3.329  0.3230E+00  0.1243E+01
   3.339  0.3221E+00  0.1246E+01
   3.349  0.3213E+00  0.1249E+01
   3.359  0.3205E+00  0.1252E+01
   3.369  0.3197E+00  0.1256E+01
   3.379  0.3189E+00  0.1259E+01
   3.389  0.3181E+00  0.1262E+01
   3.399  0.3172E+00  0.1265E+01
   3.409  0.3164E+00  0.1268E+01
   3.419  0.3155E+00  0.1272E+01
   3.429  0.3145E+00  0.1275E+01
   3.439  0.3136E+00  0.1278E+01
   3.449  0.3126E+00  0.1281E+01
   3.459  0.3115E+00  0.1284E+01
   3.469  0.3105E+00  0.1287E+01
   3.479  0.3094E+00  0.1290E+01
   3.489  0.3083E+00  0.1293E+01
   3.499  0.3072E+00  0.1296E+01
   3.509  0.3060E+00  0.1299E+01
   3.519  0.3048E+00  0.1303E+01
   3.529  0.3037E+00  0.1306E+01
   3.539  0.3027E+00  0.1309E+01
   3.549  0.3018E+00  0.1312E+01
   3.559  0.3010E+00  0.1315E+01
   3.569  0.3003E+00  0.1318E+01
   3.579  0.2997E+00  0.1321E+01
   3.589  0.2992E+00  0.1324E+01
   3.599  0.2989E+00  0.1327E+01
   3.609  0.2987E+00  0.1330E+01
   3.619  0.2987E+00  0.1333E+01
   3.629  0.2989E+00  0.1336E+01
   3.639  0.2992E+00  0.1339E+01
   3.649  0.2995E+00  0.1342E+01
   3.659  0.3002E+00  0.1345E+01
   3.669  0.3006E+00  0.1348E+01
   3.679  0.3009E+00  0.1351E+01
   3.689  0.3009E+00  0.1354E+01
   3.699  0.3007E+00  0.1357E+01
   3.709  0.3004E+00  0.1360E+01
   3.719  0.2998E+00  0.1363E+01
   3.729  0.2990E+00  0.1366E+01
   3.739  0.2979E+00  0.1369E+01
   3.749  0.2967E+00  0.1372E+01
   3.759  0.2953E+00  0.1375E+01
   3.769  0.2938E+00  0.1377E+01
   3.779  0.2924E+00  0.1380E+01
   3.789  0.2911E+00  0.1383E+01
   3.799  0.2902E+00  0.1386E+01
   3.809  0.2896E+00  0.1389E+01
   3.819  0.2894E+00  0.1392E+01
   3.829  0.2895E+00  0.1395E+01
   3.839  0.2899E+00  0.1398E+01
   3.849  0.2907E+00  0.1401E+01
   3.859  0.2918E+00  0.1404E+01
   3.869  0.2932E+00  0.1407E+01
   3.879  0.2945E+00  0.1410E+01
   3.889  0.2959E+00  0.1412E+01
   3.899  0.2973E+00  0.1415E+01
   3.909  0.2987E+00  0.1418E+01
   3.919  0.3001E+00  0.1421E+01
   3.929  0.3014E+00  0.1424E+01
   3.939  0.3027E+00  0.1427E+01
   3.949  0.3041E+00  0.1430E+01
   3.959  0.3054E+00  0.1434E+01
   3.969  0.3067E+00  0.1437E+01
   3.979  0.3080E+00  0.1440E+01
   3.989  0.3094E+00  0.1443E+01
   3.999  0.3107E+00  0.1446E+01
   4.009  0.3120E+00  0.1449E+01
   4.019  0.3132E+00  0.1452E+01
   4.029  0.3145E+00  0.1455E+01
   4.039  0.3157E+00  0.1458E+01
   4.049  0.3168E+00  0.1462E+01
   4.059  0.3179E+00  0.1465E+01
   4.069  0.3189E+00  0.1468E+01
   4.079  0.3199E+00  0.1471E+01
   4.089  0.3208E+00  0.1474E+01
   4.099  0.3217E+00  0.1477E+01
   4.109  0.3225E+00  0.1481E+01
   4.119  0.3233E+00  0.1484E+01
   4.129  0.3240E+00  0.1487E+01
   4.139  0.3247E+00  0.1490E+01
   4.149  0.3253E+00  0.1494E+01
   4.159  0.3259E+00  0.1497E+01
   4.169  0.3265E+00  0.1500E+01
   4.179  0.3270E+00  0.1503E+01
   4.189  0.3274E+00  0.1507E+01
   4.199  0.3279E+00  0.1510E+01
   4.209  0.3282E+00  0.1513E+01
   4.219  0.3285E+00  0.1517E+01
   4.229  0.3288E+00  0.1520E+01
   4.239  0.3289E+00  0.1523E+01
   4.249  0.3291E+00  0.1526E+01
   4.259  0.3291E+00  0.1530E+01
   4.269  0.3292E+00  0.1533E+01
   4.279  0.3291E+00  0.1536E+01
   4.289  0.3290E+00  0.1540E+01
   4.299  0.3286E+00  0.1543E+01
   4.309  0.3280E+00  0.1546E+01
   4.319  0.3276E+00  0.1549E+01
   4.329  0.3272E+00  0.1553E+01
   4.339  0.3270E+00  0.1556E+01
   4.349  0.3269E+00  0.1559E+01
   4.359  0.3269E+00  0.1563E+01
   4.369  0.3268E+00  0.1566E+01
   4.379  0.3267E+00  0.1569E+01
   4.389  0.3264E+00  0.1572E+01
   4.399  0.3263E+00  0.1576E+01
   4.409  0.3263E+00  0.1579E+01
   4.419  0.3262E+00  0.1582E+01
   4.429  0.3261E+00  0.1585E+01
   4.439  0.3258E+00  0.1589E+01
   4.449  0.3255E+00  0.1592E+01
   4.459  0.3253E+00  0.1595E+01
   4.469  0.3251E+00  0.1598E+01
   4.479  0.3250E+00  0.1602E+01
   4.489  0.3251E+00  0.1605E+01
   4.499  0.3253E+00  0.1608E+01
   4.509  0.3255E+00  0.1611E+01
   4.519  0.3258E+00  0.1615E+01
   4.529  0.3261E+00  0.1618E+01
   4.539  0.3264E+00  0.1621E+01
   4.549  0.3268E+00  0.1624E+01
   4.559  0.3272E+00  0.1628E+01
   4.569  0.3277E+00  0.1631E+01
   4.579  0.3281E+00  0.1634E+01
   4.589  0.3285E+00  0.1638E+01
   4.599  0.3296E+00  0.1641E+01
   4.609  0.3308E+00  0.1644E+01
   4.619  0.3320E+00  0.1647E+01
   4.629  0.3332E+00  0.1651E+01
   4.639  0.3344E+00  0.1654E+01
   4.649  0.3355E+00  0.1657E+01
   4.659  0.3367E+00  0.1661E+01
   4.669  0.3378E+00  0.1664E+01
   4.679  0.3389E+00  0.1668E+01
   4.689  0.3400E+00  0.1671E+01
   4.699  0.3410E+00  0.1674E+01
   4.709  0.3421E+00  0.1678E+01
   4.719  0.3431E+00  0.1681E+01
   4.729  0.3442E+00  0.1685E+01
   4.739  0.3453E+00  0.1688E+01
   4.749  0.3463E+00  0.1692E+01
   4.759  0.3473E+00  0.1695E+01
   4.769  0.3483E+00  0.1699E+01
   4.779  0.3493E+00  0.1702E+01
   4.789  0.3502E+00  0.1706E+01
   4.799  0.3511E+00  0.1709E+01
   4.809  0.3520E+00  0.1713E+01
   4.819  0.3528E+00  0.1716E+01
   4.829  0.3536E+00  0.1720E+01
   4.839  0.3543E+00  0.1723E+01
   4.849  0.3551E+00  0.1727E+01
   4.859  0.3557E+00  0.1730E+01
   4.869  0.3564E+00  0.1734E+01
   4.879  0.3570E+00  0.1737E+01
   4.889  0.3576E+00  0.1741E+01
   4.899  0.3581E+00  0.1745E+01
   4.909  0.3586E+00  0.1748E+01
   4.919  0.3591E+00  0.1752E+01
   4.929  0.3595E+00  0.1755E+01
   4.939  0.3599E+00  0.1759E+01
   4.949  0.3603E+00  0.1762E+01
   4.959  0.3606E+00  0.1766E+01
   4.969  0.3609E+00  0.1770E+01
   4.979  0.3612E+00  0.1773E+01
   4.989  0.3614E+00  0.1777E+01
   4.999  0.3616E+00  0.1781E+01
   5.009  0.3615E+00  0.1784E+01
   5.019  0.3613E+00  0.1788E+01
   5.029  0.3609E+00  0.1791E+01
   5.039  0.3606E+00  0.1795E+01
   5.049  0.3604E+00  0.1799E+01
   5.059  0.3601E+00  0.1802E+01
   5.069  0.3598E+00  0.1806E+01
   5.079  0.3595E+00  0.1809E+01
   5.089  0.3594E+00  0.1813E+01
   5.099  0.3594E+00  0.1817E+01
   5.109  0.3595E+00  0.1820E+01
   5.119  0.3595E+00  0.1824E+01
   5.129  0.3594E+00  0.1827E+01
   5.139  0.3593E+00  0.1831E+01
   5.149  0.3592E+00  0.1835E+01
   5.159  0.3590E+00  0.1838E+01
   5.169  0.3588E+00  0.1842E+01
   5.179  0.3586E+00  0.1845E+01
   5.189  0.3583E+00  0.1849E+01
   5.199  0.3580E+00  0.1852E+01
   5.209  0.3576E+00  0.1856E+01
   5.219  0.3572E+00  0.1860E+01
   5.229  0.3568E+00  0.1863E+01
   5.239  0.3563E+00  0.1867E+01
   5.249  0.3558E+00  0.1870E+01
   5.259  0.3553E+00  0.1874E+01
   5.269  0.3547E+00  0.1877E+01
   5.279  0.3540E+00  0.1881E+01
   5.289  0.3534E+00  0.1885E+01
   5.299  0.3542E+00  0.1888E+01
   5.309  0.3558E+00  0.1892E+01
   5.319  0.3580E+00  0.1895E+01
   5.329  0.3602E+00  0.1899E+01
   5.339  0.3622E+00  0.1902E+01
   5.349  0.3641E+00  0.1906E+01
   5.359  0.3659E+00  0.1910E+01
   5.369  0.3676E+00  0.1913E+01
   5.379  0.3691E+00  0.1917E+01
   5.389  0.3706E+00  0.1921E+01
   5.399  0.3719E+00  0.1924E+01
   5.409  0.3731E+00  0.1928E+01
   5.419  0.3743E+00  0.1932E+01
   5.429  0.3753E+00  0.1936E+01
   5.439  0.3763E+00  0.1939E+01
   5.449  0.3773E+00  0.1943E+01
   5.459  0.3783E+00  0.1947E+01
   5.469  0.3794E+00  0.1951E+01
   5.479  0.3806E+00  0.1955E+01
   5.489  0.3818E+00  0.1958E+01
   5.499  0.3831E+00  0.1962E+01
   5.509  0.3843E+00  0.1966E+01
   5.519  0.3854E+00  0.1970E+01
   5.529  0.3865E+00  0.1974E+01
   5.539  0.3875E+00  0.1978E+01
   5.549  0.3884E+00  0.1981E+01
   5.559  0.3892E+00  0.1985E+01
   5.569  0.3900E+00  0.1989E+01
   5.579  0.3908E+00  0.1993E+01
   5.589  0.3915E+00  0.1997E+01
   5.599  0.3923E+00  0.2001E+01
   5.609  0.3929E+00  0.2005E+01
   5.619  0.3936E+00  0.2009E+01
   5.629  0.3941E+00  0.2013E+01
   5.639  0.3946E+00  0.2017E+01
   5.649  0.3950E+00  0.2021E+01
   5.659  0.3953E+00  0.2025E+01
   5.669  0.3956E+00  0.2029E+01
   5.679  0.3958E+00  0.2033E+01
   5.689  0.3960E+00  0.2036E+01
   5.699  0.3962E+00  0.2040E+01
   5.709  0.3964E+00  0.2044E+01
   5.719  0.3966E+00  0.2048E+01
   5.729  0.3967E+00  0.2052E+01
   5.739  0.3969E+00  0.2056E+01
   5.749  0.3971E+00  0.2060E+01
   5.759  0.3974E+00  0.2064E+01
   5.769  0.3977E+00  0.2068E+01
   5.779  0.3979E+00  0.2072E+01
   5.789  0.3980E+00  0.2076E+01
   5.799  0.3981E+00  0.2080E+01
   5.809  0.3981E+00  0.2084E+01
   5.819  0.3979E+00  0.2088E+01
   5.829  0.3978E+00  0.2092E+01
   5.839  0.3975E+00  0.2096E+01
   5.849  0.3969E+00  0.2100E+01
   5.859  0.3957E+00  0.2104E+01
   5.869  0.3941E+00  0.2108E+01
   5.879  0.3919E+00  0.2112E+01
   5.889  0.3950E+00  0.2116E+01
   5.899  0.4123E+00  0.2120E+01
   5.909  0.4419E+00  0.2124E+01
   5.919  0.4345E+00  0.2128E+01
   5.929  0.4290E+00  0.2133E+01
   5.939  0.4238E+00  0.2137E+01
   5.949  0.4186E+00  0.2141E+01
   5.959  0.4133E+00  0.2145E+01
   5.969  0.4080E+00  0.2150E+01
   5.979  0.4026E+00  0.2154E+01
   5.989  0.3972E+00  0.2158E+01
   5.999  0.3917E+00  0.2162E+01
   6.009  0.3861E+00  0.2165E+01
   6.019  0.3805E+00  0.2169E+01
   6.029  0.3748E+00  0.2173E+01
   6.039  0.3691E+00  0.2177E+01
   6.049  0.3633E+00  0.2180E+01
   6.059  0.3574E+00  0.2184E+01
   6.069  0.3517E+00  0.2188E+01
   6.079  0.3463E+00  0.2191E+01
   6.089  0.3412E+00  0.2194E+01
   6.099  0.3365E+00  0.2198E+01
   6.109  0.3321E+00  0.2201E+01
   6.119  0.3281E+00  0.2205E+01
   6.129  0.3246E+00  0.2208E+01
   6.139  0.3216E+00  0.2211E+01
   6.149  0.3190E+00  0.2214E+01
   6.159  0.3169E+00  0.2217E+01
   6.169  0.3152E+00  0.2221E+01
   6.179  0.3140E+00  0.2224E+01
   6.189  0.3132E+00  0.2227E+01
   6.199  0.3127E+00  0.2230E+01
   6.209  0.3123E+00  0.2233E+01
   6.219  0.3122E+00  0.2236E+01
   6.229  0.3121E+00  0.2239E+01
   6.239  0.3123E+00  0.2242E+01
   6.249  0.3126E+00  0.2246E+01
   6.259  0.3131E+00  0.2249E+01
   6.269  0.3138E+00  0.2252E+01
   6.279  0.3147E+00  0.2255E+01
   6.289  0.3157E+00  0.2258E+01
   6.299  0.3169E+00  0.2261E+01
   6.309  0.3181E+00  0.2264E+01
   6.319  0.3193E+00  0.2268E+01
   6.329  0.3207E+00  0.2271E+01
   6.339  0.3220E+00  0.2274E+01
   6.349  0.3235E+00  0.2277E+01
   6.359  0.3249E+00  0.2281E+01
   6.369  0.3263E+00  0.2284E+01
   6.379  0.3276E+00  0.2287E+01
   6.389  0.3288E+00  0.2290E+01
   6.399  0.3300E+00  0.2294E+01
   6.409  0.3311E+00  0.2297E+01
   6.419  0.3322E+00  0.2300E+01
   6.429  0.3332E+00  0.2304E+01
   6.439  0.3342E+00  0.2307E+01
   6.449  0.3353E+00  0.2310E+01
   6.459  0.3364E+00  0.2314E+01
   6.469  0.3380E+00  0.2317E+01
   6.479  0.3398E+00  0.2320E+01
   6.489  0.3420E+00  0.2324E+01
   6.499  0.3441E+00  0.2327E+01
   6.509  0.3462E+00  0.2331E+01
   6.519  0.3482E+00  0.2334E+01
   6.529  0.3502E+00  0.2338E+01
   6.539  0.3521E+00  0.2341E+01
   6.549  0.3540E+00  0.2345E+01
   6.559  0.3559E+00  0.2348E+01
   6.569  0.3579E+00  0.2352E+01
   6.579  0.3583E+00  0.2355E+01
   6.589  0.3585E+00  0.2359E+01
   6.599  0.3589E+00  0.2363E+01
   6.609  0.3590E+00  0.2366E+01
   6.619  0.3587E+00  0.2370E+01
   6.629  0.3641E+00  0.2373E+01
   6.639  0.3724E+00  0.2377E+01
   6.649  0.3798E+00  0.2381E+01
   6.659  0.3863E+00  0.2385E+01
   6.669  0.3919E+00  0.2389E+01
   6.679  0.3967E+00  0.2392E+01
   6.689  0.4005E+00  0.2396E+01
   6.699  0.4034E+00  0.2400E+01
   6.709  0.4055E+00  0.2405E+01
   6.719  0.4066E+00  0.2409E+01
   6.729  0.4069E+00  0.2413E+01
   6.739  0.4063E+00  0.2417E+01
   6.749  0.4048E+00  0.2421E+01
   6.759  0.4024E+00  0.2425E+01
   6.769  0.3991E+00  0.2429E+01
   6.779  0.3950E+00  0.2433E+01
   6.789  0.3899E+00  0.2437E+01
   6.799  0.3840E+00  0.2441E+01
   6.809  0.3772E+00  0.2444E+01
   6.819  0.3696E+00  0.2448E+01
   6.829  0.3612E+00  0.2452E+01
   6.839  0.3538E+00  0.2455E+01
   6.849  0.3484E+00  0.2459E+01
   6.859  0.3449E+00  0.2462E+01
   6.869  0.3433E+00  0.2466E+01
   6.879  0.3426E+00  0.2469E+01
   6.889  0.3419E+00  0.2473E+01
   6.899  0.3412E+00  0.2476E+01
   6.909  0.3408E+00  0.2479E+01
   6.919  0.3406E+00  0.2483E+01
   6.929  0.3406E+00  0.2486E+01
   6.939  0.3407E+00  0.2490E+01
   6.949  0.3410E+00  0.2493E+01
   6.959  0.3415E+00  0.2496E+01
   6.969  0.3421E+00  0.2500E+01
   6.979  0.3427E+00  0.2503E+01
   6.989  0.3434E+00  0.2507E+01
   6.999  0.3441E+00  0.2510E+01
   7.009  0.3450E+00  0.2514E+01
   7.019  0.3458E+00  0.2517E+01
   7.029  0.3467E+00  0.2521E+01
   7.039  0.3477E+00  0.2524E+01
   7.049  0.3487E+00  0.2528E+01
   7.059  0.3499E+00  0.2531E+01
   7.069  0.3513E+00  0.2535E+01
   7.079  0.3526E+00  0.2538E+01
   7.089  0.3541E+00  0.2542E+01
   7.099  0.3556E+00  0.2545E+01
   7.109  0.3571E+00  0.2549E+01
   7.119  0.3587E+00  0.2552E+01
   7.129  0.3603E+00  0.2556E+01
   7.139  0.3618E+00  0.2559E+01
   7.149  0.3633E+00  0.2563E+01
   7.159  0.3649E+00  0.2567E+01
   7.169  0.3664E+00  0.2570E+01
   7.179  0.3680E+00  0.2574E+01
   7.189  0.3696E+00  0.2578E+01
   7.199  0.3712E+00  0.2581E+01
   7.209  0.3728E+00  0.2585E+01
   7.219  0.3743E+00  0.2589E+01
   7.229  0.3758E+00  0.2593E+01
   7.239  0.3773E+00  0.2596E+01
   7.249  0.3788E+00  0.2600E+01
   7.259  0.3803E+00  0.2604E+01
   7.269  0.3818E+00  0.2608E+01
   7.279  0.3833E+00  0.2612E+01
   7.289  0.3849E+00  0.2615E+01
   7.299  0.3865E+00  0.2619E+01
   7.309  0.3881E+00  0.2623E+01
   7.319  0.3888E+00  0.2627E+01
   7.329  0.3886E+00  0.2631E+01
   7.339  0.3889E+00  0.2635E+01
   7.349  0.3892E+00  0.2639E+01
   7.359  0.3896E+00  0.2643E+01
   7.369  0.3899E+00  0.2647E+01
   7.379  0.3902E+00  0.2650E+01
   7.389  0.3905E+00  0.2654E+01
   7.399  0.3908E+00  0.2658E+01
   7.409  0.3910E+00  0.2662E+01
   7.419  0.3912E+00  0.2666E+01
   7.429  0.3913E+00  0.2670E+01
   7.439  0.3914E+00  0.2674E+01
   7.449  0.3914E+00  0.2678E+01
   7.459  0.3914E+00  0.2682E+01
   7.469  0.3913E+00  0.2686E+01
   7.479  0.3912E+00  0.2690E+01
   7.489  0.3910E+00  0.2693E+01
   7.499  0.3908E+00  0.2697E+01
   7.509  0.3905E+00  0.2701E+01
   7.519  0.3902E+00  0.2705E+01
   7.529  0.3898E+00  0.2709E+01
   7.539  0.3894E+00  0.2713E+01
   7.549  0.3889E+00  0.2717E+01
   7.559  0.3884E+00  0.2721E+01
   7.569  0.3878E+00  0.2725E+01
   7.579  0.3872E+00  0.2729E+01
   7.589  0.3866E+00  0.2732E+01
   7.599  0.3858E+00  0.2736E+01
   7.609  0.3851E+00  0.2740E+01
   7.619  0.3842E+00  0.2744E+01
   7.629  0.3834E+00  0.2748E+01
   7.639  0.3824E+00  0.2752E+01
   7.649  0.3815E+00  0.2755E+01
   7.659  0.3805E+00  0.2759E+01
   7.669  0.3794E+00  0.2763E+01
   7.679  0.3783E+00  0.2767E+01
   7.689  0.3771E+00  0.2771E+01
   7.699  0.3759E+00  0.2774E+01
   7.709  0.3746E+00  0.2778E+01
   7.719  0.3733E+00  0.2782E+01
   7.729  0.3719E+00  0.2786E+01
   7.739  0.3705E+00  0.2789E+01
   7.749  0.3690E+00  0.2793E+01
   7.759  0.3675E+00  0.2797E+01
   7.769  0.3659E+00  0.2800E+01
   7.779  0.3643E+00  0.2804E+01
   7.789  0.3626E+00  0.2808E+01
   7.799  0.3609E+00  0.2811E+01
   7.809  0.3595E+00  0.2815E+01
   7.819  0.3585E+00  0.2818E+01
   7.829  0.3580E+00  0.2822E+01
   7.839  0.3576E+00  0.2826E+01
   7.849  0.3571E+00  0.2829E+01
   7.859  0.3566E+00  0.2833E+01
   7.869  0.3561E+00  0.2836E+01
   7.879  0.3556E+00  0.2840E+01
   7.889  0.3552E+00  0.2843E+01
   7.899  0.3547E+00  0.2847E+01
   7.909  0.3542E+00  0.2851E+01
   7.919  0.3537E+00  0.2854E+01
   7.929  0.3532E+00  0.2858E+01
   7.939  0.3527E+00  0.2861E+01
   7.949  0.3522E+00  0.2865E+01
   7.959  0.3517E+00  0.2868E+01
   7.969  0.3512E+00  0.2872E+01
   7.979  0.3507E+00  0.2875E+01
   7.989  0.3503E+00  0.2879E+01
   7.999  0.3500E+00  0.2882E+01
   8.009  0.3499E+00  0.2886E+01
   8.019  0.3497E+00  0.2889E+01
   8.029  0.3496E+00  0.2893E+01
   8.039  0.3494E+00  0.2896E+01
   8.049  0.3493E+00  0.2900E+01
   8.059  0.3491E+00  0.2903E+01
   8.069  0.3490E+00  0.2907E+01
   8.079  0.3489E+00  0.2910E+01
   8.089  0.3487E+00  0.2914E+01
   8.099  0.3485E+00  0.2917E+01
   8.109  0.3482E+00  0.2921E+01
   8.119  0.3480E+00  0.2924E+01
   8.129  0.3479E+00  0.2928E+01
   8.139  0.3479E+00  0.2931E+01
   8.149  0.3479E+00  0.2935E+01
   8.159  0.3480E+00  0.2938E+01
   8.169  0.3484E+00  0.2941E+01
   8.179  0.3489E+00  0.2945E+01
   8.189  0.3497E+00  0.2948E+01
   8.199  0.3506E+00  0.2952E+01
   8.209  0.3517E+00  0.2955E+01
   8.219  0.3531E+00  0.2959E+01
   8.229  0.3546E+00  0.2963E+01
   8.239  0.3564E+00  0.2966E+01
   8.249  0.3593E+00  0.2970E+01
   8.259  0.3633E+00  0.2973E+01
   8.269  0.3686E+00  0.2977E+01
   8.279  0.3748E+00  0.2981E+01
   8.289  0.3812E+00  0.2984E+01
   8.299  0.3874E+00  0.2988E+01
   8.309  0.3931E+00  0.2992E+01
   8.319  0.3981E+00  0.2996E+01
   8.329  0.4028E+00  0.3000E+01
   8.339  0.4071E+00  0.3004E+01
   8.349  0.4110E+00  0.3008E+01
   8.359  0.4158E+00  0.3012E+01
   8.369  0.4198E+00  0.3017E+01
   8.379  0.4231E+00  0.3021E+01
   8.389  0.4259E+00  0.3025E+01
   8.399  0.4288E+00  0.3029E+01
   8.409  0.4313E+00  0.3034E+01
   8.419  0.4334E+00  0.3038E+01
   8.429  0.4349E+00  0.3042E+01
   8.439  0.4360E+00  0.3047E+01
   8.449  0.4366E+00  0.3051E+01
   8.459  0.4366E+00  0.3055E+01
   8.469  0.4362E+00  0.3060E+01
   8.479  0.4354E+00  0.3064E+01
   8.489  0.4341E+00  0.3068E+01
   8.499  0.4324E+00  0.3073E+01
   8.509  0.4302E+00  0.3077E+01
   8.519  0.4276E+00  0.3081E+01
   8.529  0.4246E+00  0.3086E+01
   8.539  0.4212E+00  0.3090E+01
   8.549  0.4173E+00  0.3094E+01
   8.559  0.4130E+00  0.3098E+01
   8.569  0.4134E+00  0.3102E+01
   8.579  0.4139E+00  0.3106E+01
   8.589  0.4142E+00  0.3111E+01
   8.599  0.4140E+00  0.3115E+01
   8.609  0.4156E+00  0.3119E+01
   8.619  0.4183E+00  0.3123E+01
   8.629  0.4211E+00  0.3127E+01
   8.639  0.4239E+00  0.3132E+01
   8.649  0.4230E+00  0.3136E+01
   8.659  0.4212E+00  0.3140E+01
   8.669  0.4197E+00  0.3144E+01
   8.679  0.4185E+00  0.3148E+01
   8.689  0.4176E+00  0.3153E+01
   8.699  0.4170E+00  0.3157E+01
   8.709  0.4167E+00  0.3161E+01
   8.719  0.4168E+00  0.3165E+01
   8.729  0.4171E+00  0.3169E+01
   8.739  0.4177E+00  0.3173E+01
   8.749  0.4181E+00  0.3178E+01
   8.759  0.4189E+00  0.3182E+01
   8.769  0.4200E+00  0.3186E+01
   8.779  0.4212E+00  0.3190E+01
   8.789  0.4224E+00  0.3194E+01
   8.799  0.4232E+00  0.3199E+01
   8.809  0.4239E+00  0.3203E+01
   8.819  0.4245E+00  0.3207E+01
   8.829  0.4251E+00  0.3211E+01
   8.839  0.4254E+00  0.3216E+01
   8.849  0.4256E+00  0.3220E+01
   8.859  0.4258E+00  0.3224E+01
   8.869  0.4261E+00  0.3228E+01
   8.879  0.4264E+00  0.3233E+01
   8.889  0.4267E+00  0.3237E+01
   8.899  0.4270E+00  0.3241E+01
   8.909  0.4271E+00  0.3245E+01
   8.919  0.4273E+00  0.3250E+01
   8.929  0.4274E+00  0.3254E+01
   8.939  0.4275E+00  0.3258E+01
   8.949  0.4275E+00  0.3263E+01
   8.959  0.4276E+00  0.3267E+01
   8.969  0.4276E+00  0.3271E+01
   8.979  0.4278E+00  0.3275E+01
   8.989  0.4281E+00  0.3280E+01
   8.999  0.4285E+00  0.3284E+01
   9.009  0.4292E+00  0.3288E+01
   9.019  0.4299E+00  0.3292E+01
   9.029  0.4307E+00  0.3297E+01
   9.039  0.4315E+00  0.3301E+01
   9.049  0.4322E+00  0.3305E+01
   9.059  0.4330E+00  0.3310E+01
   9.069  0.4337E+00  0.3314E+01
   9.079  0.4344E+00  0.3318E+01
   9.089  0.4351E+00  0.3323E+01
   9.099  0.4358E+00  0.3327E+01
   9.109  0.4365E+00  0.3331E+01
   9.119  0.4371E+00  0.3336E+01
   9.129  0.4377E+00  0.3340E+01
   9.139  0.4383E+00  0.3345E+01
   9.149  0.4388E+00  0.3349E+01
   9.159  0.4394E+00  0.3353E+01
   9.169  0.4399E+00  0.3358E+01
   9.179  0.4404E+00  0.3362E+01
   9.189  0.4414E+00  0.3367E+01
   9.199  0.4400E+00  0.3371E+01
   9.209  0.4382E+00  0.3375E+01
   9.219  0.4364E+00  0.3380E+01
   9.229  0.4347E+00  0.3384E+01
   9.239  0.4331E+00  0.3388E+01
   9.249  0.4317E+00  0.3393E+01
   9.259  0.4303E+00  0.3397E+01
   9.269  0.4290E+00  0.3401E+01
   9.279  0.4280E+00  0.3406E+01
   9.289  0.4270E+00  0.3410E+01
   9.299  0.4262E+00  0.3414E+01
   9.309  0.4256E+00  0.3418E+01
   9.319  0.4252E+00  0.3423E+01
   9.329  0.4249E+00  0.3427E+01
   9.339  0.4248E+00  0.3431E+01
   9.349  0.4249E+00  0.3435E+01
   9.359  0.4252E+00  0.3440E+01
   9.369  0.4256E+00  0.3444E+01
   9.379  0.4262E+00  0.3448E+01
   9.389  0.4267E+00  0.3453E+01
   9.399  0.4270E+00  0.3457E+01
   9.409  0.4274E+00  0.3461E+01
   9.419  0.4274E+00  0.3465E+01
   9.429  0.4263E+00  0.3470E+01
   9.439  0.4247E+00  0.3474E+01
   9.449  0.4233E+00  0.3478E+01
   9.459  0.4219E+00  0.3482E+01
   9.469  0.4207E+00  0.3487E+01
   9.479  0.4195E+00  0.3491E+01
   9.489  0.4183E+00  0.3495E+01
   9.499  0.4172E+00  0.3499E+01
   9.509  0.4162E+00  0.3503E+01
   9.519  0.4153E+00  0.3507E+01
   9.529  0.4144E+00  0.3512E+01
   9.539  0.4136E+00  0.3516E+01
   9.549  0.4128E+00  0.3520E+01
   9.559  0.4121E+00  0.3524E+01
   9.569  0.4114E+00  0.3528E+01
   9.579  0.4108E+00  0.3532E+01
   9.589  0.4102E+00  0.3536E+01
   9.599  0.4096E+00  0.3540E+01
   9.609  0.4091E+00  0.3544E+01
   9.619  0.4086E+00  0.3549E+01
   9.629  0.4082E+00  0.3553E+01
   9.639  0.4078E+00  0.3557E+01
   9.649  0.4074E+00  0.3561E+01
   9.659  0.4071E+00  0.3565E+01
   9.669  0.4068E+00  0.3569E+01
   9.679  0.4066E+00  0.3573E+01
   9.689  0.4065E+00  0.3577E+01
   9.699  0.4063E+00  0.3581E+01
   9.709  0.4063E+00  0.3585E+01
   9.719  0.4063E+00  0.3589E+01
   9.729  0.4064E+00  0.3593E+01
   9.739  0.4065E+00  0.3597E+01
   9.749  0.4067E+00  0.3601E+01
   9.759  0.4070E+00  0.3606E+01
   9.769  0.4059E+00  0.3610E+01
   9.779  0.4049E+00  0.3614E+01
   9.789  0.4020E+00  0.3618E+01
   9.799  0.3991E+00  0.3622E+01
   9.809  0.3965E+00  0.3626E+01
   9.819  0.3941E+00  0.3630E+01
   9.829  0.3920E+00  0.3634E+01
   9.839  0.3902E+00  0.3637E+01
   9.849  0.3890E+00  0.3641E+01
   9.859  0.3887E+00  0.3645E+01
   9.869  0.3891E+00  0.3649E+01
   9.879  0.3902E+00  0.3653E+01
   9.889  0.3914E+00  0.3657E+01
   9.899  0.3928E+00  0.3661E+01
   9.909  0.3943E+00  0.3665E+01
   9.919  0.3959E+00  0.3669E+01
   9.929  0.3977E+00  0.3673E+01
   9.939  0.3995E+00  0.3677E+01
   9.949  0.4013E+00  0.3681E+01
   9.959  0.4029E+00  0.3685E+01
   9.969  0.4045E+00  0.3689E+01
   9.979  0.4059E+00  0.3693E+01
   9.989  0.4072E+00  0.3697E+01
   9.999  0.4084E+00  0.3701E+01
  10.009  0.4094E+00  0.3705E+01
  10.019  0.4104E+00  0.3709E+01
  10.029  0.4113E+00  0.3713E+01
  10.039  0.4122E+00  0.3717E+01
  10.049  0.4130E+00  0.3722E+01
  10.059  0.4137E+00  0.3726E+01
  10.069  0.4144E+00  0.3730E+01
  10.079  0.4150E+00  0.3734E+01
  10.089  0.4156E+00  0.3738E+01
  10.099  0.4161E+00  0.3742E+01
  10.109  0.4166E+00  0.3746E+01
  10.119  0.4170E+00  0.3751E+01
  10.129  0.4173E+00  0.3755E+01
  10.139  0.4176E+00  0.3759E+01
  10.149  0.4179E+00  0.3763E+01
  10.159  0.4181E+00  0.3767E+01
  10.169  0.4182E+00  0.3771E+01
  10.179  0.4183E+00  0.3776E+01
  10.189  0.4183E+00  0.3780E+01
  10.199  0.4183E+00  0.3784E+01
  10.209  0.4182E+00  0.3788E+01
  10.219  0.4180E+00  0.3792E+01
  10.229  0.4178E+00  0.3797E+01
  10.239  0.4176E+00  0.3801E+01
  10.249  0.4173E+00  0.3805E+01
  10.259  0.4170E+00  0.3809E+01
  10.269  0.4166E+00  0.3813E+01
  10.279  0.4162E+00  0.3817E+01
  10.289  0.4157E+00  0.3822E+01
  10.299  0.4152E+00  0.3826E+01
  10.309  0.4146E+00  0.3830E+01
  10.319  0.4141E+00  0.3834E+01
  10.329  0.4150E+00  0.3838E+01
  10.339  0.4167E+00  0.3842E+01
  10.349  0.4182E+00  0.3846E+01
  10.359  0.4196E+00  0.3851E+01
  10.369  0.4211E+00  0.3855E+01
  10.379  0.4220E+00  0.3859E+01
  10.389  0.4229E+00  0.3863E+01
  10.399  0.4239E+00  0.3868E+01
  10.409  0.4249E+00  0.3872E+01
  10.419  0.4260E+00  0.3876E+01
  10.429  0.4270E+00  0.3880E+01
  10.439  0.4281E+00  0.3885E+01
  10.449  0.4293E+00  0.3889E+01
  10.459  0.4305E+00  0.3893E+01
  10.469  0.4317E+00  0.3897E+01
  10.479  0.4330E+00  0.3902E+01
  10.489  0.4343E+00  0.3906E+01
  10.499  0.4356E+00  0.3911E+01
  10.509  0.4369E+00  0.3915E+01
  10.519  0.4383E+00  0.3919E+01
  10.529  0.4396E+00  0.3924E+01
  10.539  0.4410E+00  0.3928E+01
  10.549  0.4424E+00  0.3932E+01
  10.559  0.4439E+00  0.3937E+01
  10.569  0.4453E+00  0.3941E+01
  10.579  0.4468E+00  0.3946E+01
  10.589  0.4483E+00  0.3950E+01
  10.599  0.4498E+00  0.3955E+01
  10.609  0.4514E+00  0.3959E+01
  10.619  0.4525E+00  0.3964E+01
  10.629  0.4530E+00  0.3968E+01
  10.639  0.4522E+00  0.3973E+01
  10.649  0.4514E+00  0.3977E+01
  10.659  0.4507E+00  0.3982E+01
  10.669  0.4500E+00  0.3986E+01
  10.679  0.4494E+00  0.3991E+01
  10.689  0.4487E+00  0.3995E+01
  10.699  0.4482E+00  0.4000E+01
  10.709  0.4476E+00  0.4004E+01
  10.719  0.4471E+00  0.4009E+01
  10.729  0.4466E+00  0.4013E+01
  10.739  0.4462E+00  0.4018E+01
  10.749  0.4459E+00  0.4022E+01
  10.759  0.4459E+00  0.4027E+01
  10.769  0.4461E+00  0.4031E+01
  10.779  0.4463E+00  0.4036E+01
  10.789  0.4462E+00  0.4040E+01
  10.799  0.4463E+00  0.4044E+01
  10.809  0.4466E+00  0.4049E+01
  10.819  0.4469E+00  0.4053E+01
  10.829  0.4473E+00  0.4058E+01
  10.839  0.4476E+00  0.4062E+01
  10.849  0.4479E+00  0.4067E+01
  10.859  0.4482E+00  0.4071E+01
  10.869  0.4486E+00  0.4076E+01
  10.879  0.4489E+00  0.4080E+01
  10.889  0.4491E+00  0.4085E+01
  10.899  0.4491E+00  0.4089E+01
  10.909  0.4491E+00  0.4094E+01
  10.919  0.4489E+00  0.4098E+01
  10.929  0.4487E+00  0.4103E+01
  10.939  0.4484E+00  0.4107E+01
  10.949  0.4481E+00  0.4112E+01
  10.959  0.4477E+00  0.4116E+01
  10.969  0.4472E+00  0.4121E+01
  10.979  0.4468E+00  0.4125E+01
  10.989  0.4463E+00  0.4130E+01
  10.999  0.4458E+00  0.4134E+01
  11.009  0.4453E+00  0.4139E+01
  11.019  0.4447E+00  0.4143E+01
  11.029  0.4436E+00  0.4147E+01
  11.039  0.4419E+00  0.4152E+01
  11.049  0.4395E+00  0.4156E+01
  11.059  0.4364E+00  0.4161E+01
  11.069  0.4359E+00  0.4165E+01
  11.079  0.4359E+00  0.4169E+01
  11.089  0.4359E+00  0.4174E+01
  11.099  0.4359E+00  0.4178E+01
  11.109  0.4359E+00  0.4182E+01
  11.119  0.4359E+00  0.4187E+01
  11.129  0.4359E+00  0.4191E+01
  11.139  0.4361E+00  0.4195E+01
  11.149  0.4364E+00  0.4200E+01
  11.159  0.4368E+00  0.4204E+01
  11.169  0.4367E+00  0.4209E+01
  11.179  0.4363E+00  0.4213E+01
  11.189  0.4358E+00  0.4217E+01
  11.199  0.4353E+00  0.4222E+01
  11.209  0.4348E+00  0.4226E+01
  11.219  0.4344E+00  0.4230E+01
  11.229  0.4339E+00  0.4235E+01
  11.239  0.4334E+00  0.4239E+01
  11.249  0.4329E+00  0.4243E+01
  11.259  0.4324E+00  0.4248E+01
  11.269  0.4319E+00  0.4252E+01
  11.279  0.4314E+00  0.4256E+01
  11.289  0.4309E+00  0.4261E+01
  11.299  0.4304E+00  0.4265E+01
  11.309  0.4299E+00  0.4269E+01
  11.319  0.4294E+00  0.4274E+01
  11.329  0.4289E+00  0.4278E+01
  11.339  0.4281E+00  0.4282E+01
  11.349  0.4285E+00  0.4286E+01
  11.359  0.4286E+00  0.4291E+01
  11.369  0.4287E+00  0.4295E+01
  11.379  0.4289E+00  0.4299E+01
  11.389  0.4290E+00  0.4304E+01
  11.399  0.4292E+00  0.4308E+01
  11.409  0.4294E+00  0.4312E+01
  11.419  0.4296E+00  0.4316E+01
  11.429  0.4299E+00  0.4321E+01
  11.439  0.4302E+00  0.4325E+01
  11.449  0.4304E+00  0.4329E+01
  11.459  0.4308E+00  0.4334E+01
  11.469  0.4312E+00  0.4338E+01
  11.479  0.4316E+00  0.4342E+01
  11.489  0.4321E+00  0.4347E+01
  11.499  0.4325E+00  0.4351E+01
  11.509  0.4330E+00  0.4355E+01
  11.519  0.4334E+00  0.4360E+01
  11.529  0.4339E+00  0.4364E+01
  11.539  0.4344E+00  0.4368E+01
  11.549  0.4349E+00  0.4373E+01
  11.559  0.4354E+00  0.4377E+01
  11.569  0.4360E+00  0.4381E+01
  11.579  0.4365E+00  0.4386E+01
  11.589  0.4370E+00  0.4390E+01
  11.599  0.4376E+00  0.4394E+01
  11.609  0.4382E+00  0.4399E+01
  11.619  0.4388E+00  0.4403E+01
  11.629  0.4394E+00  0.4408E+01
  11.639  0.4401E+00  0.4412E+01
  11.649  0.4408E+00  0.4416E+01
  11.659  0.4415E+00  0.4421E+01
  11.669  0.4423E+00  0.4425E+01
  11.679  0.4431E+00  0.4430E+01
  11.689  0.4439E+00  0.4434E+01
  11.699  0.4448E+00  0.4439E+01
  11.709  0.4457E+00  0.4443E+01
  11.719  0.4466E+00  0.4447E+01
  11.729  0.4476E+00  0.4452E+01
  11.739  0.4486E+00  0.4456E+01
  11.749  0.4496E+00  0.4461E+01
  11.759  0.4507E+00  0.4465E+01
  11.769  0.4518E+00  0.4470E+01
  11.779  0.4529E+00  0.4474E+01
  11.789  0.4540E+00  0.4479E+01
  11.799  0.4552E+00  0.4483E+01
  11.809  0.4564E+00  0.4488E+01
  11.819  0.4576E+00  0.4493E+01
  11.829  0.4588E+00  0.4497E+01
  11.839  0.4600E+00  0.4502E+01
  11.849  0.4613E+00  0.4506E+01
  11.859  0.4625E+00  0.4511E+01
  11.869  0.4638E+00  0.4516E+01
  11.879  0.4651E+00  0.4520E+01
  11.889  0.4664E+00  0.4525E+01
  11.899  0.4678E+00  0.4530E+01
  11.909  0.4691E+00  0.4534E+01
  11.919  0.4705E+00  0.4539E+01
  11.929  0.4719E+00  0.4544E+01
  11.939  0.4733E+00  0.4548E+01
  11.949  0.4747E+00  0.4553E+01
  11.959  0.4759E+00  0.4558E+01
  11.969  0.4769E+00  0.4563E+01
  11.979  0.4779E+00  0.4567E+01
  11.989  0.4791E+00  0.4572E+01
  11.999  0.4802E+00  0.4577E+01
  12.009  0.4814E+00  0.4582E+01
  12.019  0.4825E+00  0.4587E+01
  12.029  0.4838E+00  0.4592E+01
  12.039  0.4849E+00  0.4596E+01
  12.049  0.4849E+00  0.4601E+01
  12.059  0.4844E+00  0.4606E+01
  12.069  0.4832E+00  0.4611E+01
  12.079  0.4890E+00  0.4616E+01
  12.089  0.5013E+00  0.4621E+01
  12.099  0.5111E+00  0.4626E+01
  12.109  0.5183E+00  0.4631E+01
  12.119  0.5229E+00  0.4636E+01
  12.129  0.5249E+00  0.4641E+01
  12.139  0.5245E+00  0.4647E+01
  12.149  0.5220E+00  0.4652E+01
  12.159  0.5189E+00  0.4657E+01
  12.169  0.5151E+00  0.4662E+01
  12.179  0.5108E+00  0.4667E+01
  12.189  0.5060E+00  0.4672E+01
  12.199  0.5047E+00  0.4677E+01
  12.209  0.5044E+00  0.4683E+01
  12.219  0.5042E+00  0.4688E+01
  12.229  0.5037E+00  0.4693E+01
  12.239  0.5034E+00  0.4698E+01
  12.249  0.5032E+00  0.4703E+01
  12.259  0.5030E+00  0.4708E+01
  12.269  0.5025E+00  0.4713E+01
  12.279  0.5021E+00  0.4718E+01
  12.289  0.5018E+00  0.4723E+01
  12.299  0.5017E+00  0.4728E+01
  12.309  0.5012E+00  0.4733E+01
  12.319  0.5006E+00  0.4738E+01
  12.329  0.5001E+00  0.4743E+01
  12.339  0.4996E+00  0.4748E+01
  12.349  0.4993E+00  0.4753E+01
  12.359  0.4990E+00  0.4758E+01
  12.369  0.4987E+00  0.4763E+01
  12.379  0.4986E+00  0.4768E+01
  12.389  0.4985E+00  0.4773E+01
  12.399  0.4984E+00  0.4778E+01
  12.409  0.4984E+00  0.4783E+01
  12.419  0.4983E+00  0.4788E+01
  12.429  0.4982E+00  0.4793E+01
  12.439  0.4981E+00  0.4798E+01
  12.449  0.4980E+00  0.4803E+01
  12.459  0.4979E+00  0.4808E+01
  12.469  0.4978E+00  0.4813E+01
  12.479  0.4977E+00  0.4818E+01
  12.489  0.4977E+00  0.4823E+01
  12.499  0.4977E+00  0.4828E+01
  12.509  0.4977E+00  0.4833E+01
  12.519  0.4978E+00  0.4838E+01
  12.529  0.4978E+00  0.4842E+01
  12.539  0.4977E+00  0.4847E+01
  12.549  0.4976E+00  0.4852E+01
  12.559  0.4973E+00  0.4857E+01
  12.569  0.4968E+00  0.4862E+01
  12.579  0.4964E+00  0.4867E+01
  12.589  0.4959E+00  0.4872E+01
  12.599  0.4954E+00  0.4877E+01
  12.609  0.4950E+00  0.4882E+01
  12.619  0.4946E+00  0.4887E+01
  12.629  0.4942E+00  0.4892E+01
  12.639  0.4939E+00  0.4897E+01
  12.649  0.4936E+00  0.4902E+01
  12.659  0.4933E+00  0.4907E+01
  12.669  0.4930E+00  0.4912E+01
  12.679  0.4928E+00  0.4917E+01
  12.689  0.4926E+00  0.4922E+01
  12.699  0.4925E+00  0.4927E+01
  12.709  0.4923E+00  0.4932E+01
  12.719  0.4922E+00  0.4936E+01
  12.729  0.4922E+00  0.4941E+01
  12.739  0.4921E+00  0.4946E+01
  12.749  0.4921E+00  0.4951E+01
  12.759  0.4920E+00  0.4956E+01
  12.769  0.4920E+00  0.4961E+01
  12.779  0.4920E+00  0.4966E+01
  12.789  0.4920E+00  0.4971E+01
  12.799  0.4919E+00  0.4976E+01
  12.809  0.4918E+00  0.4981E+01
  12.819  0.4916E+00  0.4986E+01
  12.829  0.4914E+00  0.4991E+01
  12.839  0.4913E+00  0.4996E+01
  12.849  0.4911E+00  0.5000E+01
  12.859  0.4910E+00  0.5005E+01
  12.869  0.4908E+00  0.5010E+01
  12.879  0.4907E+00  0.5015E+01
  12.889  0.4906E+00  0.5020E+01
  12.899  0.4905E+00  0.5025E+01
  12.909  0.4905E+00  0.5030E+01
  12.919  0.4904E+00  0.5035E+01
  12.929  0.4904E+00  0.5040E+01
  12.939  0.4904E+00  0.5045E+01
  12.949  0.4904E+00  0.5049E+01
  12.959  0.4904E+00  0.5054E+01
  12.969  0.4904E+00  0.5059E+01
  12.979  0.4906E+00  0.5064E+01
  12.989  0.4911E+00  0.5069E+01
  12.999  0.4912E+00  0.5074E+01
  13.009  0.4914E+00  0.5079E+01
  13.019  0.4916E+00  0.5084E+01
  13.029  0.4918E+00  0.5089E+01
  13.039  0.4920E+00  0.5094E+01
  13.049  0.4923E+00  0.5099E+01
  13.059  0.4926E+00  0.5104E+01
  13.069  0.4928E+00  0.5108E+01
  13.079  0.4931E+00  0.5113E+01
  13.089  0.4933E+00  0.5118E+01
  13.099  0.4935E+00  0.5123E+01
  13.109  0.4936E+00  0.5128E+01
  13.119  0.4938E+00  0.5133E+01
  13.129  0.4940E+00  0.5138E+01
  13.139  0.4942E+00  0.5143E+01
  13.149  0.4945E+00  0.5148E+01
  13.159  0.4948E+00  0.5153E+01
  13.169  0.4950E+00  0.5158E+01
  13.179  0.4953E+00  0.5163E+01
  13.189  0.4956E+00  0.5168E+01
  13.199  0.4960E+00  0.5173E+01
  13.209  0.4965E+00  0.5178E+01
  13.219  0.4970E+00  0.5183E+01
  13.229  0.4976E+00  0.5188E+01
  13.239  0.4981E+00  0.5193E+01
  13.249  0.4987E+00  0.5198E+01
  13.259  0.4993E+00  0.5203E+01
  13.269  0.5000E+00  0.5208E+01
  13.279  0.5006E+00  0.5213E+01
  13.289  0.5013E+00  0.5218E+01
  13.299  0.5020E+00  0.5223E+01
  13.309  0.5027E+00  0.5228E+01
  13.319  0.5034E+00  0.5233E+01
  13.329  0.5041E+00  0.5238E+01
  13.339  0.5048E+00  0.5243E+01
  13.349  0.5055E+00  0.5248E+01
  13.359  0.5062E+00  0.5253E+01
  13.369  0.5069E+00  0.5258E+01
  13.379  0.5077E+00  0.5263E+01
  13.389  0.5084E+00  0.5268E+01
  13.399  0.5092E+00  0.5273E+01
  13.409  0.5100E+00  0.5278E+01
  13.419  0.5108E+00  0.5283E+01
  13.429  0.5116E+00  0.5288E+01
  13.439  0.5119E+00  0.5294E+01
  13.449  0.5118E+00  0.5299E+01
  13.459  0.5117E+00  0.5304E+01
  13.469  0.5116E+00  0.5309E+01
  13.479  0.5116E+00  0.5314E+01
  13.489  0.5116E+00  0.5319E+01
  13.499  0.5117E+00  0.5324E+01
  13.509  0.5117E+00  0.5329E+01
  13.519  0.5119E+00  0.5335E+01
  13.529  0.5122E+00  0.5340E+01
  13.539  0.5125E+00  0.5345E+01
  13.549  0.5128E+00  0.5350E+01
  13.559  0.5131E+00  0.5355E+01
  13.569  0.5135E+00  0.5360E+01
  13.579  0.5139E+00  0.5365E+01
  13.589  0.5143E+00  0.5370E+01
  13.599  0.5148E+00  0.5376E+01
  13.609  0.5153E+00  0.5381E+01
  13.619  0.5159E+00  0.5386E+01
  13.629  0.5164E+00  0.5391E+01
  13.639  0.5171E+00  0.5396E+01
  13.649  0.5177E+00  0.5401E+01
  13.659  0.5184E+00  0.5407E+01
  13.669  0.5191E+00  0.5412E+01
  13.679  0.5199E+00  0.5417E+01
  13.689  0.5207E+00  0.5422E+01
  13.699  0.5215E+00  0.5427E+01
  13.709  0.5224E+00  0.5433E+01
  13.719  0.5233E+00  0.5438E+01
  13.729  0.5243E+00  0.5443E+01
  13.739  0.5253E+00  0.5448E+01
  13.749  0.5264E+00  0.5454E+01
  13.759  0.5275E+00  0.5459E+01
  13.769  0.5287E+00  0.5464E+01
  13.779  0.5299E+00  0.5469E+01
  13.789  0.5312E+00  0.5475E+01
  13.799  0.5325E+00  0.5480E+01
  13.809  0.5339E+00  0.5485E+01
  13.819  0.5352E+00  0.5491E+01
  13.829  0.5367E+00  0.5496E+01
  13.839  0.5381E+00  0.5501E+01
  13.849  0.5396E+00  0.5507E+01
  13.859  0.5411E+00  0.5512E+01
  13.869  0.5426E+00  0.5518E+01
  13.879  0.5441E+00  0.5523E+01
  13.889  0.5456E+00  0.5529E+01
  13.899  0.5471E+00  0.5534E+01
  13.909  0.5487E+00  0.5539E+01
  13.919  0.5503E+00  0.5545E+01
  13.929  0.5519E+00  0.5550E+01
  13.939  0.5535E+00  0.5556E+01
  13.949  0.5552E+00  0.5562E+01
  13.959  0.5569E+00  0.5567E+01
  13.969  0.5587E+00  0.5573E+01
  13.979  0.5606E+00  0.5578E+01
  13.989  0.5626E+00  0.5584E+01
  13.999  0.5643E+00  0.5590E+01
  14.009  0.5662E+00  0.5595E+01
  14.019  0.5681E+00  0.5601E+01
  14.029  0.5696E+00  0.5607E+01
  14.039  0.5711E+00  0.5612E+01
  14.049  0.5727E+00  0.5618E+01
  14.059  0.5744E+00  0.5624E+01
  14.069  0.5762E+00  0.5629E+01
  14.079  0.5781E+00  0.5635E+01
  14.089  0.5801E+00  0.5641E+01
  14.099  0.5822E+00  0.5647E+01
  14.109  0.5843E+00  0.5653E+01
  14.119  0.5864E+00  0.5659E+01
  14.129  0.5885E+00  0.5664E+01
  14.139  0.5906E+00  0.5670E+01
  14.149  0.5926E+00  0.5676E+01
  14.159  0.5946E+00  0.5682E+01
  14.169  0.5967E+00  0.5688E+01
  14.179  0.5987E+00  0.5694E+01
  14.189  0.6007E+00  0.5700E+01
  14.199  0.6026E+00  0.5706E+01
  14.209  0.6046E+00  0.5712E+01
  14.219  0.6066E+00  0.5718E+01
  14.229  0.6086E+00  0.5724E+01
  14.239  0.6104E+00  0.5730E+01
  14.249  0.6121E+00  0.5736E+01
  14.259  0.6137E+00  0.5743E+01
  14.269  0.6157E+00  0.5749E+01
  14.279  0.6182E+00  0.5755E+01
  14.289  0.6201E+00  0.5761E+01
  14.299  0.6216E+00  0.5767E+01
  14.309  0.6226E+00  0.5774E+01
  14.319  0.6224E+00  0.5780E+01
  14.329  0.6218E+00  0.5786E+01
  14.339  0.6207E+00  0.5792E+01
  14.349  0.6192E+00  0.5798E+01
  14.359  0.6173E+00  0.5805E+01
  14.369  0.6149E+00  0.5811E+01
  14.379  0.6121E+00  0.5817E+01
  14.389  0.6090E+00  0.5823E+01
  14.399  0.6053E+00  0.5829E+01
  14.409  0.6009E+00  0.5835E+01
  14.419  0.5959E+00  0.5841E+01
  14.429  0.5902E+00  0.5847E+01
  14.439  0.5838E+00  0.5853E+01
  14.449  0.5767E+00  0.5859E+01
  14.459  0.5690E+00  0.5864E+01
  14.469  0.5607E+00  0.5870E+01
  14.479  0.5578E+00  0.5876E+01
  14.489  0.5572E+00  0.5881E+01
  14.499  0.5565E+00  0.5887E+01
  14.509  0.5560E+00  0.5892E+01
  14.519  0.5554E+00  0.5898E+01
  14.529  0.5549E+00  0.5903E+01
  14.539  0.5544E+00  0.5909E+01
  14.549  0.5539E+00  0.5915E+01
  14.559  0.5535E+00  0.5920E+01
  14.569  0.5533E+00  0.5926E+01
  14.579  0.5530E+00  0.5931E+01
  14.589  0.5528E+00  0.5937E+01
  14.599  0.5526E+00  0.5942E+01
  14.609  0.5525E+00  0.5948E+01
  14.619  0.5523E+00  0.5953E+01
  14.629  0.5522E+00  0.5959E+01
  14.639  0.5521E+00  0.5964E+01
  14.649  0.5520E+00  0.5970E+01
  14.659  0.5520E+00  0.5975E+01
  14.669  0.5520E+00  0.5981E+01
  14.679  0.5521E+00  0.5986E+01
  14.689  0.5521E+00  0.5992E+01
  14.699  0.5522E+00  0.5997E+01
  14.709  0.5524E+00  0.6003E+01
  14.719  0.5528E+00  0.6008E+01
  14.729  0.5532E+00  0.6014E+01
  14.739  0.5538E+00  0.6020E+01
  14.749  0.5545E+00  0.6025E+01
  14.759  0.5553E+00  0.6031E+01
  14.769  0.5563E+00  0.6036E+01
  14.779  0.5573E+00  0.6042E+01
  14.789  0.5586E+00  0.6047E+01
  14.799  0.5599E+00  0.6053E+01
  14.809  0.5614E+00  0.6058E+01
  14.819  0.5629E+00  0.6064E+01
  14.829  0.5644E+00  0.6070E+01
  14.839  0.5660E+00  0.6075E+01
  14.849  0.5677E+00  0.6081E+01
  14.859  0.5693E+00  0.6087E+01
  14.869  0.5709E+00  0.6092E+01
  14.879  0.5726E+00  0.6098E+01
  14.889  0.5743E+00  0.6104E+01
  14.899  0.5760E+00  0.6110E+01
  14.909  0.5778E+00  0.6115E+01
  14.919  0.5796E+00  0.6121E+01
  14.929  0.5815E+00  0.6127E+01
  14.939  0.5834E+00  0.6133E+01
  14.949  0.5853E+00  0.6139E+01
  14.959  0.5873E+00  0.6145E+01
  14.969  0.5893E+00  0.6150E+01
  14.979  0.5913E+00  0.6156E+01
  14.989  0.5933E+00  0.6162E+01
  14.999  0.5954E+00  0.6168E+01
  15.009  0.5975E+00  0.6174E+01
  15.019  0.5996E+00  0.6180E+01
  15.029  0.5970E+00  0.6186E+01
  15.039  0.5880E+00  0.6192E+01
  15.049  0.5793E+00  0.6198E+01
  15.059  0.5713E+00  0.6204E+01
  15.069  0.5640E+00  0.6209E+01
  15.079  0.5576E+00  0.6215E+01
  15.089  0.5519E+00  0.6220E+01
  15.099  0.5471E+00  0.6226E+01
  15.109  0.5428E+00  0.6231E+01
  15.119  0.5390E+00  0.6237E+01
  15.129  0.5357E+00  0.6242E+01
  15.139  0.5331E+00  0.6248E+01
  15.149  0.5311E+00  0.6253E+01
  15.159  0.5296E+00  0.6258E+01
  15.169  0.5285E+00  0.6263E+01
  15.179  0.5276E+00  0.6269E+01
  15.189  0.5270E+00  0.6274E+01
  15.199  0.5266E+00  0.6279E+01
  15.209  0.5262E+00  0.6285E+01
  15.219  0.5257E+00  0.6290E+01
  15.229  0.5253E+00  0.6295E+01
  15.239  0.5249E+00  0.6300E+01
  15.249  0.5245E+00  0.6306E+01
  15.259  0.5241E+00  0.6311E+01
  15.269  0.5237E+00  0.6316E+01
  15.279  0.5233E+00  0.6321E+01
  15.289  0.5229E+00  0.6327E+01
  15.299  0.5225E+00  0.6332E+01
  15.309  0.5221E+00  0.6337E+01
  15.319  0.5220E+00  0.6342E+01
  15.329  0.5217E+00  0.6347E+01
  15.339  0.5215E+00  0.6353E+01
  15.349  0.5213E+00  0.6358E+01
  15.359  0.5210E+00  0.6363E+01
  15.369  0.5208E+00  0.6368E+01
  15.379  0.5206E+00  0.6373E+01
  15.389  0.5204E+00  0.6379E+01
  15.399  0.5202E+00  0.6384E+01
  15.409  0.5200E+00  0.6389E+01
  15.419  0.5198E+00  0.6394E+01
  15.429  0.5197E+00  0.6399E+01
  15.439  0.5193E+00  0.6405E+01
  15.449  0.5187E+00  0.6410E+01
  15.459  0.5181E+00  0.6415E+01
  15.469  0.5176E+00  0.6420E+01
  15.479  0.5170E+00  0.6425E+01
  15.489  0.5165E+00  0.6431E+01
  15.499  0.5160E+00  0.6436E+01
  15.509  0.5155E+00  0.6441E+01
  15.519  0.5150E+00  0.6446E+01
  15.529  0.5145E+00  0.6451E+01
  15.539  0.5142E+00  0.6456E+01
  15.549  0.5138E+00  0.6461E+01
  15.559  0.5135E+00  0.6467E+01
  15.569  0.5131E+00  0.6472E+01
  15.579  0.5129E+00  0.6477E+01
  15.589  0.5126E+00  0.6482E+01
  15.599  0.5124E+00  0.6487E+01
  15.609  0.5122E+00  0.6492E+01
  15.619  0.5120E+00  0.6497E+01
  15.629  0.5118E+00  0.6502E+01
  15.639  0.5116E+00  0.6508E+01
  15.649  0.5115E+00  0.6513E+01
  15.659  0.5113E+00  0.6518E+01
  15.669  0.5112E+00  0.6523E+01
  15.679  0.5110E+00  0.6528E+01
  15.689  0.5109E+00  0.6533E+01
  15.699  0.5107E+00  0.6538E+01
  15.709  0.5106E+00  0.6543E+01
  15.719  0.5105E+00  0.6548E+01
  15.729  0.5104E+00  0.6554E+01
  15.739  0.5104E+00  0.6559E+01
  15.749  0.5103E+00  0.6564E+01
  15.759  0.5103E+00  0.6569E+01
  15.769  0.5104E+00  0.6574E+01
  15.779  0.5105E+00  0.6579E+01
  15.789  0.5106E+00  0.6584E+01
  15.799  0.5110E+00  0.6589E+01
  15.809  0.5115E+00  0.6594E+01
  15.819  0.5120E+00  0.6600E+01
  15.829  0.5123E+00  0.6605E+01
  15.839  0.5126E+00  0.6610E+01
  15.849  0.5130E+00  0.6615E+01
  15.859  0.5135E+00  0.6620E+01
  15.869  0.5141E+00  0.6625E+01
  15.879  0.5148E+00  0.6630E+01
  15.889  0.5156E+00  0.6635E+01
  15.899  0.5165E+00  0.6641E+01
  15.909  0.5176E+00  0.6646E+01
  15.919  0.5181E+00  0.6651E+01
  15.929  0.5180E+00  0.6656E+01
  15.939  0.5179E+00  0.6661E+01
  15.949  0.5180E+00  0.6667E+01
  15.959  0.5183E+00  0.6672E+01
  15.969  0.5187E+00  0.6677E+01
  15.979  0.5192E+00  0.6682E+01
  15.989  0.5200E+00  0.6687E+01
  15.999  0.5208E+00  0.6692E+01
  16.009  0.5219E+00  0.6698E+01
  16.019  0.5230E+00  0.6703E+01
  16.029  0.5244E+00  0.6708E+01
  16.039  0.5258E+00  0.6713E+01
  16.049  0.5273E+00  0.6719E+01
  16.059  0.5286E+00  0.6724E+01
  16.069  0.5298E+00  0.6729E+01
  16.079  0.5307E+00  0.6735E+01
  16.089  0.5315E+00  0.6740E+01
  16.099  0.5321E+00  0.6745E+01
  16.109  0.5326E+00  0.6751E+01
  16.119  0.5328E+00  0.6756E+01
  16.129  0.5331E+00  0.6761E+01
  16.139  0.5334E+00  0.6766E+01
  16.149  0.5337E+00  0.6772E+01
  16.159  0.5342E+00  0.6777E+01
  16.169  0.5346E+00  0.6783E+01
  16.179  0.5351E+00  0.6788E+01
  16.189  0.5356E+00  0.6793E+01
  16.199  0.5361E+00  0.6799E+01
  16.209  0.5365E+00  0.6804E+01
  16.219  0.5370E+00  0.6809E+01
  16.229  0.5374E+00  0.6815E+01
  16.239  0.5379E+00  0.6820E+01
  16.249  0.5383E+00  0.6825E+01
  16.259  0.5388E+00  0.6831E+01
  16.269  0.5393E+00  0.6836E+01
  16.279  0.5398E+00  0.6842E+01
  16.289  0.5404E+00  0.6847E+01
  16.299  0.5410E+00  0.6852E+01
  16.309  0.5415E+00  0.6858E+01
  16.319  0.5421E+00  0.6863E+01
  16.329  0.5427E+00  0.6869E+01
  16.339  0.5430E+00  0.6874E+01
  16.349  0.5428E+00  0.6880E+01
  16.359  0.5426E+00  0.6885E+01
  16.369  0.5424E+00  0.6890E+01
  16.379  0.5416E+00  0.6896E+01
  16.389  0.5406E+00  0.6901E+01
  16.399  0.5396E+00  0.6907E+01
  16.409  0.5386E+00  0.6912E+01
  16.419  0.5377E+00  0.6917E+01
  16.429  0.5368E+00  0.6923E+01
  16.439  0.5359E+00  0.6928E+01
  16.449  0.5350E+00  0.6933E+01
  16.459  0.5341E+00  0.6939E+01
  16.469  0.5332E+00  0.6944E+01
  16.479  0.5323E+00  0.6949E+01
  16.489  0.5314E+00  0.6955E+01
  16.499  0.5306E+00  0.6960E+01
  16.509  0.5297E+00  0.6965E+01
  16.519  0.5288E+00  0.6971E+01
  16.529  0.5280E+00  0.6976E+01
  16.539  0.5272E+00  0.6981E+01
  16.549  0.5264E+00  0.6987E+01
  16.559  0.5257E+00  0.6992E+01
  16.569  0.5249E+00  0.6997E+01
  16.579  0.5242E+00  0.7002E+01
  16.589  0.5236E+00  0.7008E+01
  16.599  0.5230E+00  0.7013E+01
  16.609  0.5224E+00  0.7018E+01
  16.619  0.5219E+00  0.7023E+01
  16.629  0.5215E+00  0.7028E+01
  16.639  0.5212E+00  0.7034E+01
  16.649  0.5210E+00  0.7039E+01
  16.659  0.5209E+00  0.7044E+01
  16.669  0.5209E+00  0.7049E+01
  16.679  0.5210E+00  0.7054E+01
  16.689  0.5212E+00  0.7060E+01
  16.699  0.5215E+00  0.7065E+01
  16.709  0.5185E+00  0.7070E+01
  16.719  0.5083E+00  0.7075E+01
  16.729  0.5078E+00  0.7080E+01
  16.739  0.5085E+00  0.7085E+01
  16.749  0.5092E+00  0.7090E+01
  16.759  0.5099E+00  0.7096E+01
  16.769  0.5107E+00  0.7101E+01
  16.779  0.5105E+00  0.7106E+01
  16.789  0.5102E+00  0.7111E+01
  16.799  0.5100E+00  0.7116E+01
  16.809  0.5098E+00  0.7121E+01
  16.819  0.5096E+00  0.7126E+01
  16.829  0.5093E+00  0.7131E+01
  16.839  0.5091E+00  0.7136E+01
  16.849  0.5090E+00  0.7141E+01
  16.859  0.5088E+00  0.7147E+01
  16.869  0.5086E+00  0.7152E+01
  16.879  0.5085E+00  0.7157E+01
  16.889  0.5084E+00  0.7162E+01
  16.899  0.5083E+00  0.7167E+01
  16.909  0.5083E+00  0.7172E+01
  16.919  0.5082E+00  0.7177E+01
  16.929  0.5082E+00  0.7182E+01
  16.939  0.5082E+00  0.7187E+01
  16.949  0.5082E+00  0.7192E+01
  16.959  0.5082E+00  0.7197E+01
  16.969  0.5083E+00  0.7202E+01
  16.979  0.5083E+00  0.7208E+01
  16.989  0.5083E+00  0.7213E+01
  16.999  0.5083E+00  0.7218E+01
  17.009  0.5084E+00  0.7223E+01
  17.019  0.5084E+00  0.7228E+01
  17.029  0.5084E+00  0.7233E+01
  17.039  0.5084E+00  0.7238E+01
  17.049  0.5084E+00  0.7243E+01
  17.059  0.5084E+00  0.7248E+01
  17.069  0.5083E+00  0.7253E+01
  17.079  0.5081E+00  0.7258E+01
  17.089  0.5081E+00  0.7263E+01
  17.099  0.5081E+00  0.7269E+01
  17.109  0.5080E+00  0.7274E+01
  17.119  0.5080E+00  0.7279E+01
  17.129  0.5080E+00  0.7284E+01
  17.139  0.5079E+00  0.7289E+01
  17.149  0.5079E+00  0.7294E+01
  17.159  0.5079E+00  0.7299E+01
  17.169  0.5079E+00  0.7304E+01
  17.179  0.5080E+00  0.7309E+01
  17.189  0.5079E+00  0.7314E+01
  17.199  0.5080E+00  0.7319E+01
  17.209  0.5080E+00  0.7324E+01
  17.219  0.5079E+00  0.7330E+01
  17.229  0.5079E+00  0.7335E+01
  17.239  0.5078E+00  0.7340E+01
  17.249  0.5077E+00  0.7345E+01
  17.259  0.5077E+00  0.7350E+01
  17.269  0.5076E+00  0.7355E+01
  17.279  0.5075E+00  0.7360E+01
  17.289  0.5074E+00  0.7365E+01
  17.299  0.5073E+00  0.7370E+01
  17.309  0.5072E+00  0.7375E+01
  17.319  0.5070E+00  0.7380E+01
  17.329  0.5068E+00  0.7385E+01
  17.339  0.5067E+00  0.7390E+01
  17.349  0.5065E+00  0.7395E+01
  17.359  0.5063E+00  0.7401E+01
  17.369  0.5061E+00  0.7406E+01
  17.379  0.5059E+00  0.7411E+01
  17.389  0.5056E+00  0.7416E+01
  17.399  0.5054E+00  0.7421E+01
  17.409  0.5052E+00  0.7426E+01
  17.419  0.5050E+00  0.7431E+01
  17.429  0.5048E+00  0.7436E+01
  17.439  0.5045E+00  0.7441E+01
  17.449  0.5043E+00  0.7446E+01
  17.459  0.5040E+00  0.7451E+01
  17.469  0.5038E+00  0.7456E+01
  17.479  0.5037E+00  0.7461E+01
  17.489  0.5035E+00  0.7466E+01
  17.499  0.5033E+00  0.7471E+01
  17.509  0.5031E+00  0.7476E+01
  17.519  0.5029E+00  0.7481E+01
  17.529  0.5027E+00  0.7486E+01
  17.539  0.5024E+00  0.7491E+01
  17.549  0.5022E+00  0.7496E+01
  17.559  0.5020E+00  0.7501E+01
  17.569  0.5019E+00  0.7506E+01
  17.579  0.5017E+00  0.7511E+01
  17.589  0.5016E+00  0.7516E+01
  17.599  0.5015E+00  0.7521E+01
  17.609  0.5014E+00  0.7526E+01
  17.619  0.5014E+00  0.7531E+01
  17.629  0.5014E+00  0.7536E+01
  17.639  0.5014E+00  0.7541E+01
  17.649  0.5015E+00  0.7546E+01
  17.659  0.5017E+00  0.7552E+01
  17.669  0.5019E+00  0.7557E+01
  17.679  0.5021E+00  0.7562E+01
  17.689  0.5023E+00  0.7567E+01
  17.699  0.5026E+00  0.7572E+01
  17.709  0.5028E+00  0.7577E+01
  17.719  0.5032E+00  0.7582E+01
  17.729  0.5035E+00  0.7587E+01
  17.739  0.5039E+00  0.7592E+01
  17.749  0.5042E+00  0.7597E+01
  17.759  0.5046E+00  0.7602E+01
  17.769  0.5050E+00  0.7607E+01
  17.779  0.5055E+00  0.7612E+01
  17.789  0.5059E+00  0.7617E+01
  17.799  0.5064E+00  0.7622E+01
  17.809  0.5069E+00  0.7627E+01
  17.819  0.5074E+00  0.7632E+01
  17.829  0.5079E+00  0.7637E+01
  17.839  0.5084E+00  0.7642E+01
  17.849  0.5089E+00  0.7647E+01
  17.859  0.5094E+00  0.7653E+01
  17.869  0.5099E+00  0.7658E+01
  17.879  0.5104E+00  0.7663E+01
  17.889  0.5109E+00  0.7668E+01
  17.899  0.5114E+00  0.7673E+01
  17.909  0.5120E+00  0.7678E+01
  17.919  0.5125E+00  0.7683E+01
  17.929  0.5131E+00  0.7688E+01
  17.939  0.5136E+00  0.7693E+01
  17.949  0.5142E+00  0.7699E+01
  17.959  0.5148E+00  0.7704E+01
  17.969  0.5154E+00  0.7709E+01
  17.979  0.5160E+00  0.7714E+01
  17.989  0.5167E+00  0.7719E+01
  17.999  0.5174E+00  0.7724E+01
  18.009  0.5181E+00  0.7730E+01
  18.019  0.5189E+00  0.7735E+01
  18.029  0.5195E+00  0.7740E+01
  18.039  0.5202E+00  0.7745E+01
  18.049  0.5209E+00  0.7750E+01
  18.059  0.5216E+00  0.7756E+01
  18.069  0.5223E+00  0.7761E+01
  18.079  0.5232E+00  0.7766E+01
  18.089  0.5241E+00  0.7771E+01
  18.099  0.5250E+00  0.7776E+01
  18.109  0.5260E+00  0.7782E+01
  18.119  0.5270E+00  0.7787E+01
  18.129  0.5281E+00  0.7792E+01
  18.139  0.5294E+00  0.7798E+01
  18.149  0.5307E+00  0.7803E+01
  18.159  0.5318E+00  0.7808E+01
  18.169  0.5327E+00  0.7813E+01
  18.179  0.5329E+00  0.7819E+01
  18.189  0.5332E+00  0.7824E+01
  18.199  0.5335E+00  0.7829E+01
  18.209  0.5338E+00  0.7835E+01
  18.219  0.5340E+00  0.7840E+01
  18.229  0.5343E+00  0.7845E+01
  18.239  0.5346E+00  0.7851E+01
  18.249  0.5351E+00  0.7856E+01
  18.259  0.5355E+00  0.7862E+01
  18.269  0.5359E+00  0.7867E+01
  18.279  0.5364E+00  0.7872E+01
  18.289  0.5368E+00  0.7878E+01
  18.299  0.5372E+00  0.7883E+01
  18.309  0.5377E+00  0.7888E+01
  18.319  0.5381E+00  0.7894E+01
  18.329  0.5385E+00  0.7899E+01
  18.339  0.5389E+00  0.7904E+01
  18.349  0.5393E+00  0.7910E+01
  18.359  0.5397E+00  0.7915E+01
  18.369  0.5401E+00  0.7921E+01
  18.379  0.5405E+00  0.7926E+01
  18.389  0.5409E+00  0.7931E+01
  18.399  0.5413E+00  0.7937E+01
  18.409  0.5418E+00  0.7942E+01
  18.419  0.5422E+00  0.7948E+01
  18.429  0.5426E+00  0.7953E+01
  18.439  0.5431E+00  0.7959E+01
  18.449  0.5436E+00  0.7964E+01
  18.459  0.5441E+00  0.7969E+01
  18.469  0.5446E+00  0.7975E+01
  18.479  0.5451E+00  0.7980E+01
  18.489  0.5457E+00  0.7986E+01
  18.499  0.5462E+00  0.7991E+01
  18.509  0.5468E+00  0.7997E+01
  18.519  0.5474E+00  0.8002E+01
  18.529  0.5480E+00  0.8008E+01
  18.539  0.5486E+00  0.8013E+01
  18.549  0.5492E+00  0.8019E+01
  18.559  0.5498E+00  0.8024E+01
  18.569  0.5504E+00  0.8030E+01
  18.579  0.5511E+00  0.8035E+01
  18.589  0.5517E+00  0.8041E+01
  18.599  0.5524E+00  0.8046E+01
  18.609  0.5530E+00  0.8052E+01
  18.619  0.5537E+00  0.8057E+01
  18.629  0.5544E+00  0.8063E+01
  18.639  0.5550E+00  0.8068E+01
  18.649  0.5557E+00  0.8074E+01
  18.659  0.5564E+00  0.8079E+01
  18.669  0.5571E+00  0.8085E+01
  18.679  0.5578E+00  0.8091E+01
  18.689  0.5585E+00  0.8096E+01
  18.699  0.5593E+00  0.8102E+01
  18.709  0.5600E+00  0.8107E+01
  18.719  0.5608E+00  0.8113E+01
  18.729  0.5616E+00  0.8119E+01
  18.739  0.5624E+00  0.8124E+01
  18.749  0.5632E+00  0.8130E+01
  18.759  0.5640E+00  0.8135E+01
  18.769  0.5649E+00  0.8141E+01
  18.779  0.5658E+00  0.8147E+01
  18.789  0.5667E+00  0.8152E+01
  18.799  0.5676E+00  0.8158E+01
  18.809  0.5685E+00  0.8164E+01
  18.819  0.5695E+00  0.8169E+01
  18.829  0.5705E+00  0.8175E+01
  18.839  0.5715E+00  0.8181E+01
  18.849  0.5724E+00  0.8187E+01
  18.859  0.5734E+00  0.8192E+01
  18.869  0.5747E+00  0.8198E+01
  18.879  0.5760E+00  0.8204E+01
  18.889  0.5773E+00  0.8210E+01
  18.899  0.5787E+00  0.8215E+01
  18.909  0.5801E+00  0.8221E+01
  18.919  0.5821E+00  0.8227E+01
  18.929  0.5836E+00  0.8233E+01
  18.939  0.5847E+00  0.8239E+01
  18.949  0.5858E+00  0.8244E+01
  18.959  0.5869E+00  0.8250E+01
  18.969  0.5880E+00  0.8256E+01
  18.979  0.5890E+00  0.8262E+01
  18.989  0.5901E+00  0.8268E+01
  18.999  0.5911E+00  0.8274E+01
  19.009  0.5921E+00  0.8280E+01
  19.019  0.5931E+00  0.8286E+01
  19.029  0.5940E+00  0.8292E+01
  19.039  0.5949E+00  0.8298E+01
  19.049  0.5958E+00  0.8304E+01
  19.059  0.5967E+00  0.8310E+01
  19.069  0.5975E+00  0.8316E+01
  19.079  0.5982E+00  0.8321E+01
  19.089  0.5989E+00  0.8327E+01
  19.099  0.5995E+00  0.8333E+01
  19.109  0.5999E+00  0.8339E+01
  19.119  0.6004E+00  0.8345E+01
  19.129  0.6009E+00  0.8351E+01
  19.139  0.6014E+00  0.8357E+01
  19.149  0.6022E+00  0.8364E+01
  19.159  0.6033E+00  0.8370E+01
  19.169  0.6041E+00  0.8376E+01
  19.179  0.6043E+00  0.8382E+01
  19.189  0.6040E+00  0.8388E+01
  19.199  0.6031E+00  0.8394E+01
  19.209  0.6018E+00  0.8400E+01
  19.219  0.6005E+00  0.8406E+01
  19.229  0.6015E+00  0.8412E+01
  19.239  0.6026E+00  0.8418E+01
  19.249  0.6038E+00  0.8424E+01
  19.259  0.6046E+00  0.8430E+01
  19.269  0.6052E+00  0.8436E+01
  19.279  0.6058E+00  0.8442E+01
  19.289  0.6059E+00  0.8448E+01
  19.299  0.6060E+00  0.8454E+01
  19.309  0.6062E+00  0.8460E+01
  19.319  0.6065E+00  0.8466E+01
  19.329  0.6068E+00  0.8472E+01
  19.339  0.6069E+00  0.8478E+01
  19.349  0.6071E+00  0.8484E+01
  19.359  0.6073E+00  0.8490E+01
  19.369  0.6075E+00  0.8497E+01
  19.379  0.6078E+00  0.8503E+01
  19.389  0.6084E+00  0.8509E+01
  19.399  0.6091E+00  0.8515E+01
  19.409  0.6101E+00  0.8521E+01
  19.419  0.6112E+00  0.8527E+01
  19.429  0.6124E+00  0.8533E+01
  19.439  0.6138E+00  0.8539E+01
  19.449  0.6151E+00  0.8545E+01
  19.459  0.6164E+00  0.8552E+01
  19.469  0.6178E+00  0.8558E+01
  19.479  0.6195E+00  0.8564E+01
  19.489  0.6217E+00  0.8570E+01
  19.499  0.6240E+00  0.8576E+01
  19.509  0.6263E+00  0.8583E+01
  19.519  0.6285E+00  0.8589E+01
  19.529  0.6306E+00  0.8595E+01
  19.539  0.6329E+00  0.8601E+01
  19.549  0.6349E+00  0.8608E+01
  19.559  0.6365E+00  0.8614E+01
  19.569  0.6379E+00  0.8621E+01
  19.579  0.6393E+00  0.8627E+01
  19.589  0.6401E+00  0.8633E+01
  19.599  0.6406E+00  0.8640E+01
  19.609  0.6410E+00  0.8646E+01
  19.619  0.6415E+00  0.8653E+01
  19.629  0.6421E+00  0.8659E+01
  19.639  0.6427E+00  0.8665E+01
  19.649  0.6433E+00  0.8672E+01
  19.659  0.6439E+00  0.8678E+01
  19.669  0.6445E+00  0.8685E+01
  19.679  0.6452E+00  0.8691E+01
  19.689  0.6458E+00  0.8698E+01
  19.699  0.6466E+00  0.8704E+01
  19.709  0.6473E+00  0.8711E+01
  19.719  0.6479E+00  0.8717E+01
  19.729  0.6485E+00  0.8723E+01
  19.739  0.6491E+00  0.8730E+01
  19.749  0.6498E+00  0.8736E+01
  19.759  0.6506E+00  0.8743E+01
  19.769  0.6514E+00  0.8749E+01
  19.779  0.6521E+00  0.8756E+01
  19.789  0.6527E+00  0.8763E+01
  19.799  0.6534E+00  0.8769E+01
  19.809  0.6540E+00  0.8776E+01
  19.819  0.6547E+00  0.8782E+01
  19.829  0.6553E+00  0.8789E+01
  19.839  0.6560E+00  0.8795E+01
  19.849  0.6567E+00  0.8802E+01
  19.859  0.6573E+00  0.8808E+01
  19.869  0.6581E+00  0.8815E+01
  19.879  0.6588E+00  0.8822E+01
  19.889  0.6595E+00  0.8828E+01
  19.899  0.6603E+00  0.8835E+01
  19.909  0.6610E+00  0.8841E+01
  19.919  0.6618E+00  0.8848E+01
  19.929  0.6625E+00  0.8855E+01
  19.939  0.6631E+00  0.8861E+01
  19.949  0.6637E+00  0.8868E+01
  19.959  0.6643E+00  0.8874E+01
  19.969  0.6647E+00  0.8881E+01
  19.979  0.6650E+00  0.8888E+01
  19.989  0.6653E+00  0.8894E+01
  19.999  0.6654E+00  0.8901E+01
  20.009  0.6656E+00  0.8908E+01
  20.019  0.6658E+00  0.8914E+01
  20.029  0.6660E+00  0.8921E+01
  20.039  0.6662E+00  0.8928E+01
  20.049  0.6663E+00  0.8934E+01
  20.059  0.6665E+00  0.8941E+01
  20.069  0.6666E+00  0.8948E+01
  20.079  0.6667E+00  0.8954E+01
  20.089  0.6668E+00  0.8961E+01
  20.099  0.6669E+00  0.8968E+01
  20.109  0.6670E+00  0.8974E+01
  20.119  0.6671E+00  0.8981E+01
  20.129  0.6674E+00  0.8988E+01
  20.139  0.6676E+00  0.8994E+01
  20.149  0.6679E+00  0.9001E+01
  20.159  0.6683E+00  0.9008E+01
  20.169  0.6686E+00  0.9014E+01
  20.179  0.6690E+00  0.9021E+01
  20.189  0.6694E+00  0.9028E+01
  20.199  0.6698E+00  0.9034E+01
  20.209  0.6702E+00  0.9041E+01
  20.219  0.6707E+00  0.9048E+01
  20.229  0.6711E+00  0.9055E+01
  20.239  0.6716E+00  0.9061E+01
  20.249  0.6721E+00  0.9068E+01
  20.259  0.6726E+00  0.9075E+01
  20.269  0.6731E+00  0.9081E+01
  20.279  0.6736E+00  0.9088E+01
  20.289  0.6741E+00  0.9095E+01
  20.299  0.6746E+00  0.9102E+01
  20.309  0.6751E+00  0.9108E+01
  20.319  0.6756E+00  0.9115E+01
  20.329  0.6762E+00  0.9122E+01
  20.339  0.6767E+00  0.9129E+01
  20.349  0.6772E+00  0.9135E+01
  20.359  0.6777E+00  0.9142E+01
  20.369  0.6783E+00  0.9149E+01
  20.379  0.6789E+00  0.9156E+01
  20.389  0.6795E+00  0.9163E+01
  20.399  0.6802E+00  0.9169E+01
  20.409  0.6810E+00  0.9176E+01
  20.419  0.6818E+00  0.9183E+01
  20.429  0.6827E+00  0.9190E+01
  20.439  0.6837E+00  0.9197E+01
  20.449  0.6847E+00  0.9204E+01
  20.459  0.6853E+00  0.9210E+01
  20.469  0.6860E+00  0.9217E+01
  20.479  0.6868E+00  0.9224E+01
  20.489  0.6876E+00  0.9231E+01
  20.499  0.6883E+00  0.9238E+01
  20.509  0.6890E+00  0.9245E+01
  20.519  0.6898E+00  0.9252E+01
  20.529  0.6906E+00  0.9259E+01
  20.539  0.6915E+00  0.9265E+01
  20.549  0.6925E+00  0.9272E+01
  20.559  0.6936E+00  0.9279E+01
  20.569  0.6948E+00  0.9286E+01
  20.579  0.6960E+00  0.9293E+01
  20.589  0.6973E+00  0.9300E+01
  20.599  0.6987E+00  0.9307E+01
  20.609  0.7000E+00  0.9314E+01
  20.619  0.7015E+00  0.9321E+01
  20.629  0.7029E+00  0.9328E+01
  20.639  0.7043E+00  0.9335E+01
  20.649  0.7058E+00  0.9342E+01
  20.659  0.7071E+00  0.9349E+01
  20.669  0.7084E+00  0.9356E+01
  20.679  0.7096E+00  0.9363E+01
  20.689  0.7108E+00  0.9371E+01
  20.699  0.7120E+00  0.9378E+01
  20.709  0.7131E+00  0.9385E+01
  20.719  0.7145E+00  0.9392E+01
  20.729  0.7160E+00  0.9399E+01
  20.739  0.7172E+00  0.9406E+01
  20.749  0.7182E+00  0.9413E+01
  20.759  0.7175E+00  0.9421E+01
  20.769  0.7167E+00  0.9428E+01
  20.779  0.7167E+00  0.9435E+01
  20.789  0.7187E+00  0.9442E+01
  20.799  0.7206E+00  0.9449E+01
  20.809  0.7223E+00  0.9457E+01
  20.819  0.7239E+00  0.9464E+01
  20.829  0.7254E+00  0.9471E+01
  20.839  0.7267E+00  0.9478E+01
  20.849  0.7279E+00  0.9486E+01
  20.859  0.7290E+00  0.9493E+01
  20.869  0.7300E+00  0.9500E+01
  20.879  0.7307E+00  0.9507E+01
  20.889  0.7312E+00  0.9515E+01
  20.899  0.7318E+00  0.9522E+01
  20.909  0.7324E+00  0.9529E+01
  20.919  0.7329E+00  0.9537E+01
  20.929  0.7335E+00  0.9544E+01
  20.939  0.7341E+00  0.9551E+01
  20.949  0.7347E+00  0.9559E+01
  20.959  0.7353E+00  0.9566E+01
  20.969  0.7359E+00  0.9573E+01
  20.979  0.7363E+00  0.9581E+01
  20.989  0.7368E+00  0.9588E+01
  20.999  0.7370E+00  0.9596E+01
  21.009  0.7372E+00  0.9603E+01
  21.019  0.7374E+00  0.9610E+01
  21.029  0.7370E+00  0.9618E+01
  21.039  0.7362E+00  0.9625E+01
  21.049  0.7353E+00  0.9632E+01
  21.059  0.7342E+00  0.9640E+01
  21.069  0.7329E+00  0.9647E+01
  21.079  0.7315E+00  0.9654E+01
  21.089  0.7299E+00  0.9662E+01
  21.099  0.7282E+00  0.9669E+01
  21.109  0.7265E+00  0.9676E+01
  21.119  0.7247E+00  0.9684E+01
  21.129  0.7226E+00  0.9691E+01
  21.139  0.7202E+00  0.9698E+01
  21.149  0.7177E+00  0.9705E+01
  21.159  0.7151E+00  0.9712E+01
  21.169  0.7123E+00  0.9719E+01
  21.179  0.7091E+00  0.9727E+01
  21.189  0.7057E+00  0.9734E+01
  21.199  0.7020E+00  0.9741E+01
  21.209  0.6983E+00  0.9748E+01
  21.219  0.6943E+00  0.9755E+01
  21.229  0.6903E+00  0.9762E+01
  21.239  0.6860E+00  0.9768E+01
  21.249  0.6817E+00  0.9775E+01
  21.259  0.6772E+00  0.9782E+01
  21.269  0.6726E+00  0.9789E+01
  21.279  0.6681E+00  0.9796E+01
  21.289  0.6636E+00  0.9802E+01
  21.299  0.6591E+00  0.9809E+01
  21.309  0.6545E+00  0.9815E+01
  21.319  0.6499E+00  0.9822E+01
  21.329  0.6454E+00  0.9828E+01
  21.339  0.6409E+00  0.9835E+01
  21.349  0.6364E+00  0.9841E+01
  21.359  0.6320E+00  0.9848E+01
  21.369  0.6276E+00  0.9854E+01
  21.379  0.6232E+00  0.9860E+01
  21.389  0.6189E+00  0.9866E+01
  21.399  0.6146E+00  0.9872E+01
  21.409  0.6103E+00  0.9879E+01
  21.419  0.6061E+00  0.9885E+01
  21.429  0.6018E+00  0.9891E+01
  21.439  0.5977E+00  0.9897E+01
  21.449  0.5935E+00  0.9903E+01
  21.459  0.5896E+00  0.9909E+01
  21.469  0.5859E+00  0.9914E+01
  21.479  0.5824E+00  0.9920E+01
  21.489  0.5792E+00  0.9926E+01
  21.499  0.5762E+00  0.9932E+01
  21.509  0.5735E+00  0.9938E+01
  21.519  0.5710E+00  0.9943E+01
  21.529  0.5687E+00  0.9949E+01
  21.539  0.5667E+00  0.9955E+01
  21.549  0.5650E+00  0.9960E+01
  21.559  0.5635E+00  0.9966E+01
  21.569  0.5622E+00  0.9972E+01
  21.579  0.5612E+00  0.9977E+01
  21.589  0.5604E+00  0.9983E+01
  21.599  0.5598E+00  0.9988E+01
  21.609  0.5594E+00  0.9994E+01
  21.619  0.5597E+00  0.1000E+02
  21.629  0.5608E+00  0.1001E+02
  21.639  0.5627E+00  0.1001E+02
  21.649  0.5648E+00  0.1002E+02
  21.659  0.5668E+00  0.1002E+02
  21.669  0.5688E+00  0.1003E+02
  21.679  0.5708E+00  0.1003E+02
  21.689  0.5726E+00  0.1004E+02
  21.699  0.5745E+00  0.1005E+02
  21.709  0.5764E+00  0.1005E+02
  21.719  0.5782E+00  0.1006E+02
  21.729  0.5801E+00  0.1006E+02
  21.739  0.5819E+00  0.1007E+02
  21.749  0.5836E+00  0.1007E+02
  21.759  0.5854E+00  0.1008E+02
  21.769  0.5871E+00  0.1009E+02
  21.779  0.5886E+00  0.1009E+02
  21.789  0.5897E+00  0.1010E+02
  21.799  0.5905E+00  0.1010E+02
  21.809  0.5910E+00  0.1011E+02
  21.819  0.5914E+00  0.1012E+02
  21.829  0.5916E+00  0.1012E+02
  21.839  0.5916E+00  0.1013E+02
  21.849  0.5914E+00  0.1013E+02
  21.859  0.5911E+00  0.1014E+02
  21.869  0.5906E+00  0.1014E+02
  21.879  0.5899E+00  0.1015E+02
  21.889  0.5851E+00  0.1016E+02
  21.899  0.5785E+00  0.1016E+02
  21.909  0.5760E+00  0.1017E+02
  21.919  0.5738E+00  0.1017E+02
  21.929  0.5716E+00  0.1018E+02
  21.939  0.5699E+00  0.1019E+02
  21.949  0.5660E+00  0.1019E+02
  21.959  0.5621E+00  0.1020E+02
  21.969  0.5584E+00  0.1020E+02
  21.979  0.5551E+00  0.1021E+02
  21.989  0.5521E+00  0.1021E+02
  21.999  0.5494E+00  0.1022E+02
  22.009  0.5470E+00  0.1022E+02
  22.019  0.5448E+00  0.1023E+02
  22.029  0.5430E+00  0.1024E+02
  22.039  0.5414E+00  0.1024E+02
  22.049  0.5401E+00  0.1025E+02
  22.059  0.5389E+00  0.1025E+02
  22.069  0.5377E+00  0.1026E+02
  22.079  0.5366E+00  0.1026E+02
  22.089  0.5351E+00  0.1027E+02
  22.099  0.5336E+00  0.1027E+02
  22.109  0.5321E+00  0.1028E+02
  22.119  0.5314E+00  0.1028E+02
  22.129  0.5306E+00  0.1029E+02
  22.139  0.5298E+00  0.1029E+02
  22.149  0.5290E+00  0.1030E+02
  22.159  0.5281E+00  0.1030E+02
  22.169  0.5272E+00  0.1031E+02
  22.179  0.5262E+00  0.1032E+02
  22.189  0.5253E+00  0.1032E+02
  22.199  0.5243E+00  0.1033E+02
  22.209  0.5233E+00  0.1033E+02
  22.219  0.5223E+00  0.1034E+02
  22.229  0.5213E+00  0.1034E+02
  22.239  0.5203E+00  0.1035E+02
  22.249  0.5192E+00  0.1035E+02
  22.259  0.5182E+00  0.1036E+02
  22.269  0.5171E+00  0.1036E+02
  22.279  0.5159E+00  0.1037E+02
  22.289  0.5148E+00  0.1037E+02
  22.299  0.5137E+00  0.1038E+02
  22.309  0.5126E+00  0.1038E+02
  22.319  0.5114E+00  0.1039E+02
  22.329  0.5102E+00  0.1039E+02
  22.339  0.5091E+00  0.1040E+02
  22.349  0.5079E+00  0.1040E+02
  22.359  0.5066E+00  0.1041E+02
  22.369  0.5053E+00  0.1041E+02
  22.379  0.5040E+00  0.1042E+02
  22.389  0.5026E+00  0.1042E+02
  22.399  0.5012E+00  0.1043E+02
  22.409  0.4997E+00  0.1043E+02
  22.419  0.4982E+00  0.1044E+02
  22.429  0.4966E+00  0.1044E+02
  22.439  0.4951E+00  0.1045E+02
  22.449  0.4935E+00  0.1045E+02
  22.459  0.4917E+00  0.1046E+02
  22.469  0.4899E+00  0.1046E+02
  22.479  0.4881E+00  0.1047E+02
  22.489  0.4863E+00  0.1047E+02
  22.499  0.4846E+00  0.1048E+02
  22.509  0.4834E+00  0.1048E+02
  22.519  0.4822E+00  0.1049E+02
  22.529  0.4812E+00  0.1049E+02
  22.539  0.4804E+00  0.1050E+02
  22.549  0.4800E+00  0.1050E+02
  22.559  0.4796E+00  0.1051E+02
  22.569  0.4792E+00  0.1051E+02
  22.579  0.4793E+00  0.1052E+02
  22.589  0.4795E+00  0.1052E+02
  22.599  0.4802E+00  0.1053E+02
  22.609  0.4811E+00  0.1053E+02
  22.619  0.4817E+00  0.1054E+02
  22.629  0.4822E+00  0.1054E+02
  22.639  0.4827E+00  0.1055E+02
  22.649  0.4832E+00  0.1055E+02
  22.659  0.4827E+00  0.1055E+02
  22.669  0.4820E+00  0.1056E+02
  22.679  0.4817E+00  0.1056E+02
  22.689  0.4823E+00  0.1057E+02
  22.699  0.4828E+00  0.1057E+02
  22.709  0.4833E+00  0.1058E+02
  22.719  0.4837E+00  0.1058E+02
  22.729  0.4843E+00  0.1059E+02
  22.739  0.4849E+00  0.1059E+02
  22.749  0.4855E+00  0.1060E+02
  22.759  0.4863E+00  0.1060E+02
  22.769  0.4871E+00  0.1061E+02
  22.779  0.4880E+00  0.1061E+02
  22.789  0.4889E+00  0.1062E+02
  22.799  0.4900E+00  0.1062E+02
  22.809  0.4912E+00  0.1063E+02
  22.819  0.4924E+00  0.1063E+02
  22.829  0.4936E+00  0.1064E+02
  22.839  0.4949E+00  0.1064E+02
  22.849  0.4963E+00  0.1065E+02
  22.859  0.4977E+00  0.1065E+02
  22.869  0.4992E+00  0.1066E+02
  22.879  0.5008E+00  0.1066E+02
  22.889  0.5025E+00  0.1067E+02
  22.899  0.5042E+00  0.1067E+02
  22.909  0.5061E+00  0.1068E+02
  22.919  0.5079E+00  0.1068E+02
  22.929  0.5099E+00  0.1069E+02
  22.939  0.5120E+00  0.1069E+02
  22.949  0.5143E+00  0.1070E+02
  22.959  0.5166E+00  0.1070E+02
  22.969  0.5190E+00  0.1071E+02
  22.979  0.5216E+00  0.1071E+02
  22.989  0.5243E+00  0.1072E+02
  22.999  0.5272E+00  0.1072E+02
  23.009  0.5305E+00  0.1073E+02
  23.019  0.5340E+00  0.1073E+02
  23.029  0.5377E+00  0.1074E+02
  23.039  0.5418E+00  0.1075E+02
  23.049  0.5461E+00  0.1075E+02
  23.059  0.5506E+00  0.1076E+02
  23.069  0.5554E+00  0.1076E+02
  23.079  0.5603E+00  0.1077E+02
  23.089  0.5655E+00  0.1077E+02
  23.099  0.5708E+00  0.1078E+02
  23.109  0.5763E+00  0.1078E+02
  23.119  0.5790E+00  0.1079E+02
  23.129  0.5819E+00  0.1080E+02
  23.139  0.5927E+00  0.1080E+02
  23.149  0.6036E+00  0.1081E+02
  23.159  0.6141E+00  0.1081E+02
  23.169  0.6245E+00  0.1082E+02
  23.179  0.6341E+00  0.1083E+02
  23.189  0.6429E+00  0.1083E+02
  23.199  0.6509E+00  0.1084E+02
  23.209  0.6579E+00  0.1085E+02
  23.219  0.6641E+00  0.1085E+02
  23.229  0.6694E+00  0.1086E+02
  23.239  0.6738E+00  0.1087E+02
  23.249  0.6774E+00  0.1087E+02
  23.259  0.6808E+00  0.1088E+02
  23.269  0.6841E+00  0.1089E+02
  23.279  0.6874E+00  0.1089E+02
  23.289  0.6907E+00  0.1090E+02
  23.299  0.6940E+00  0.1091E+02
  23.309  0.6973E+00  0.1091E+02
  23.319  0.7006E+00  0.1092E+02
  23.329  0.7040E+00  0.1093E+02
  23.339  0.7074E+00  0.1093E+02
  23.349  0.7108E+00  0.1094E+02
  23.359  0.7140E+00  0.1095E+02
  23.369  0.7172E+00  0.1096E+02
  23.379  0.7202E+00  0.1096E+02
  23.389  0.7232E+00  0.1097E+02
  23.399  0.7261E+00  0.1098E+02
  23.409  0.7289E+00  0.1099E+02
  23.419  0.7316E+00  0.1099E+02
  23.429  0.7341E+00  0.1100E+02
  23.439  0.7364E+00  0.1101E+02
  23.449  0.7386E+00  0.1101E+02
  23.459  0.7402E+00  0.1102E+02
  23.469  0.7413E+00  0.1103E+02
  23.479  0.7419E+00  0.1104E+02
  23.489  0.7422E+00  0.1104E+02
  23.499  0.7422E+00  0.1105E+02
  23.509  0.7424E+00  0.1106E+02
  23.519  0.7431E+00  0.1107E+02
  23.529  0.7439E+00  0.1107E+02
  23.539  0.7447E+00  0.1108E+02
  23.549  0.7457E+00  0.1109E+02
  23.559  0.7468E+00  0.1110E+02
  23.569  0.7479E+00  0.1110E+02
  23.579  0.7492E+00  0.1111E+02
  23.589  0.7507E+00  0.1112E+02
  23.599  0.7522E+00  0.1113E+02
  23.609  0.7539E+00  0.1113E+02
  23.619  0.7559E+00  0.1114E+02
  23.629  0.7579E+00  0.1115E+02
  23.639  0.7601E+00  0.1116E+02
  23.649  0.7628E+00  0.1116E+02
  23.659  0.7666E+00  0.1117E+02
  23.669  0.7714E+00  0.1118E+02
  23.679  0.7772E+00  0.1119E+02
  23.689  0.7842E+00  0.1119E+02
  23.699  0.7923E+00  0.1120E+02
  23.709  0.8014E+00  0.1121E+02
  23.719  0.8117E+00  0.1122E+02
  23.729  0.8305E+00  0.1123E+02
  23.739  0.8604E+00  0.1124E+02
  23.749  0.8890E+00  0.1124E+02
  23.759  0.9063E+00  0.1125E+02
  23.769  0.9067E+00  0.1126E+02
  23.779  0.8899E+00  0.1127E+02
  23.789  0.8554E+00  0.1128E+02
  23.799  0.8360E+00  0.1129E+02
  23.809  0.8358E+00  0.1130E+02
  23.819  0.8332E+00  0.1130E+02
  23.829  0.8284E+00  0.1131E+02
  23.839  0.8225E+00  0.1132E+02
  23.849  0.8145E+00  0.1133E+02
  23.859  0.8036E+00  0.1134E+02
  23.869  0.7925E+00  0.1135E+02
  23.879  0.7833E+00  0.1135E+02
  23.889  0.7758E+00  0.1136E+02
  23.899  0.7702E+00  0.1137E+02
  23.909  0.7665E+00  0.1138E+02
  23.919  0.7645E+00  0.1138E+02
  23.929  0.7628E+00  0.1139E+02
  23.939  0.7607E+00  0.1140E+02
  23.949  0.7583E+00  0.1141E+02
  23.959  0.7555E+00  0.1141E+02
  23.969  0.7519E+00  0.1142E+02
  23.979  0.7456E+00  0.1143E+02
  23.989  0.7387E+00  0.1144E+02
  23.999  0.7315E+00  0.1144E+02
  24.009  0.7230E+00  0.1145E+02
  24.019  0.7142E+00  0.1146E+02
  24.029  0.7054E+00  0.1147E+02
  24.039  0.6966E+00  0.1147E+02
  24.049  0.6878E+00  0.1148E+02
  24.059  0.6788E+00  0.1149E+02
  24.069  0.6695E+00  0.1149E+02
  24.079  0.6599E+00  0.1150E+02
  24.089  0.6502E+00  0.1151E+02
  24.099  0.6402E+00  0.1151E+02
  24.109  0.6300E+00  0.1152E+02
  24.119  0.6198E+00  0.1153E+02
  24.129  0.6095E+00  0.1153E+02
  24.139  0.5992E+00  0.1154E+02
  24.149  0.5890E+00  0.1154E+02
  24.159  0.5790E+00  0.1155E+02
  24.169  0.5692E+00  0.1156E+02
  24.179  0.5594E+00  0.1156E+02
  24.189  0.5498E+00  0.1157E+02
  24.199  0.5404E+00  0.1157E+02
  24.209  0.5311E+00  0.1158E+02
  24.219  0.5217E+00  0.1158E+02
  24.229  0.5124E+00  0.1159E+02
  24.239  0.5030E+00  0.1159E+02
  24.249  0.4936E+00  0.1160E+02
  24.259  0.4843E+00  0.1160E+02
  24.269  0.4749E+00  0.1161E+02
  24.279  0.4656E+00  0.1161E+02
  24.289  0.4563E+00  0.1162E+02
  24.299  0.4477E+00  0.1162E+02
  24.309  0.4394E+00  0.1163E+02
  24.319  0.4314E+00  0.1163E+02
  24.329  0.4236E+00  0.1163E+02
  24.339  0.4159E+00  0.1164E+02
  24.349  0.4085E+00  0.1164E+02
  24.359  0.4011E+00  0.1165E+02
  24.369  0.3938E+00  0.1165E+02
  24.379  0.3867E+00  0.1166E+02
  24.389  0.3797E+00  0.1166E+02
  24.399  0.3729E+00  0.1166E+02
  24.409  0.3663E+00  0.1167E+02
  24.419  0.3599E+00  0.1167E+02
  24.429  0.3536E+00  0.1167E+02
  24.439  0.3475E+00  0.1168E+02
  24.449  0.3416E+00  0.1168E+02
  24.459  0.3358E+00  0.1168E+02
  24.469  0.3302E+00  0.1169E+02
  24.479  0.3247E+00  0.1169E+02
  24.489  0.3193E+00  0.1169E+02
  24.499  0.3141E+00  0.1170E+02
  24.509  0.3089E+00  0.1170E+02
  24.519  0.3039E+00  0.1170E+02
  24.529  0.2989E+00  0.1171E+02
  24.539  0.2941E+00  0.1171E+02
  24.549  0.2893E+00  0.1171E+02
  24.559  0.2846E+00  0.1171E+02
  24.569  0.2801E+00  0.1172E+02
  24.579  0.2756E+00  0.1172E+02
  24.589  0.2713E+00  0.1172E+02
  24.599  0.2670E+00  0.1173E+02
  24.609  0.2629E+00  0.1173E+02
  24.619  0.2588E+00  0.1173E+02
  24.629  0.2549E+00  0.1173E+02
  24.639  0.2511E+00  0.1174E+02
  24.649  0.2473E+00  0.1174E+02
  24.659  0.2438E+00  0.1174E+02
  24.669  0.2410E+00  0.1174E+02
  24.679  0.2382E+00  0.1175E+02
  24.689  0.2355E+00  0.1175E+02
  24.699  0.2330E+00  0.1175E+02
  24.709  0.2305E+00  0.1175E+02
  24.719  0.2281E+00  0.1176E+02
  24.729  0.2258E+00  0.1176E+02
  24.739  0.2235E+00  0.1176E+02
  24.749  0.2212E+00  0.1176E+02
  24.759  0.2191E+00  0.1176E+02
  24.769  0.2170E+00  0.1177E+02
  24.779  0.2149E+00  0.1177E+02
  24.789  0.2130E+00  0.1177E+02
  24.799  0.2111E+00  0.1177E+02
  24.809  0.2092E+00  0.1177E+02
  24.819  0.2075E+00  0.1178E+02
  24.829  0.2058E+00  0.1178E+02
  24.839  0.2041E+00  0.1178E+02
  24.849  0.2025E+00  0.1178E+02
  24.859  0.2009E+00  0.1179E+02
  24.869  0.1993E+00  0.1179E+02
  24.879  0.1978E+00  0.1179E+02
  24.889  0.1963E+00  0.1179E+02
  24.899  0.1948E+00  0.1179E+02
  24.909  0.1933E+00  0.1180E+02
  24.919  0.1919E+00  0.1180E+02
  24.929  0.1904E+00  0.1180E+02
  24.939  0.1889E+00  0.1180E+02
  24.949  0.1875E+00  0.1180E+02
  24.959  0.1861E+00  0.1180E+02
  24.969  0.1847E+00  0.1181E+02
  24.979  0.1833E+00  0.1181E+02
  24.989  0.1819E+00  0.1181E+02
  24.999  0.1805E+00  0.1181E+02
  25.009  0.1792E+00  0.1181E+02
  25.019  0.1779E+00  0.1182E+02
  25.029  0.1765E+00  0.1182E+02
  25.039  0.1752E+00  0.1182E+02
  25.049  0.1738E+00  0.1182E+02
  25.059  0.1725E+00  0.1182E+02
  25.069  0.1712E+00  0.1182E+02
  25.079  0.1700E+00  0.1183E+02
  25.089  0.1688E+00  0.1183E+02
  25.099  0.1677E+00  0.1183E+02
  25.109  0.1665E+00  0.1183E+02
  25.119  0.1655E+00  0.1183E+02
  25.129  0.1645E+00  0.1183E+02
  25.139  0.1635E+00  0.1184E+02
  25.149  0.1626E+00  0.1184E+02
  25.159  0.1617E+00  0.1184E+02
  25.169  0.1608E+00  0.1184E+02
  25.179  0.1599E+00  0.1184E+02
  25.189  0.1591E+00  0.1184E+02
  25.199  0.1584E+00  0.1185E+02
  25.209  0.1576E+00  0.1185E+02
  25.219  0.1570E+00  0.1185E+02
  25.229  0.1563E+00  0.1185E+02
  25.239  0.1557E+00  0.1185E+02
  25.249  0.1551E+00  0.1185E+02
  25.259  0.1545E+00  0.1185E+02
  25.269  0.1540E+00  0.1186E+02
  25.279  0.1534E+00  0.1186E+02
  25.289  0.1528E+00  0.1186E+02
  25.299  0.1522E+00  0.1186E+02
  25.309  0.1515E+00  0.1186E+02
  25.319  0.1509E+00  0.1186E+02
  25.329  0.1503E+00  0.1187E+02
  25.339  0.1496E+00  0.1187E+02
  25.349  0.1489E+00  0.1187E+02
  25.359  0.1483E+00  0.1187E+02
  25.369  0.1476E+00  0.1187E+02
  25.379  0.1469E+00  0.1187E+02
  25.389  0.1462E+00  0.1187E+02
  25.399  0.1454E+00  0.1188E+02
  25.409  0.1447E+00  0.1188E+02
  25.419  0.1440E+00  0.1188E+02
  25.429  0.1432E+00  0.1188E+02
  25.439  0.1424E+00  0.1188E+02
  25.449  0.1417E+00  0.1188E+02
  25.459  0.1409E+00  0.1188E+02
  25.469  0.1401E+00  0.1189E+02
  25.479  0.1393E+00  0.1189E+02
  25.489  0.1385E+00  0.1189E+02
  25.499  0.1376E+00  0.1189E+02
  25.509  0.1368E+00  0.1189E+02
  25.519  0.1359E+00  0.1189E+02
  25.529  0.1351E+00  0.1189E+02
  25.539  0.1342E+00  0.1190E+02
  25.549  0.1333E+00  0.1190E+02
  25.559  0.1324E+00  0.1190E+02
  25.569  0.1315E+00  0.1190E+02
  25.579  0.1306E+00  0.1190E+02
  25.589  0.1297E+00  0.1190E+02
  25.599  0.1287E+00  0.1190E+02
  25.609  0.1278E+00  0.1190E+02
  25.619  0.1268E+00  0.1191E+02
  25.629  0.1259E+00  0.1191E+02
  25.639  0.1249E+00  0.1191E+02
  25.649  0.1239E+00  0.1191E+02
  25.659  0.1229E+00  0.1191E+02
  25.669  0.1219E+00  0.1191E+02
  25.679  0.1208E+00  0.1191E+02
  25.689  0.1198E+00  0.1191E+02
  25.699  0.1187E+00  0.1192E+02
  25.709  0.1177E+00  0.1192E+02
  25.719  0.1166E+00  0.1192E+02
  25.729  0.1155E+00  0.1192E+02
  25.739  0.1144E+00  0.1192E+02
  25.749  0.1133E+00  0.1192E+02
  25.759  0.1122E+00  0.1192E+02
  25.769  0.1111E+00  0.1192E+02
  25.779  0.1100E+00  0.1193E+02
  25.789  0.1088E+00  0.1193E+02
  25.799  0.1077E+00  0.1193E+02
  25.809  0.1065E+00  0.1193E+02
  25.819  0.1053E+00  0.1193E+02
  25.829  0.1041E+00  0.1193E+02
  25.839  0.1029E+00  0.1193E+02
  25.849  0.1017E+00  0.1193E+02
  25.859  0.1005E+00  0.1193E+02
  25.869  0.9926E-01  0.1193E+02
  25.879  0.9801E-01  0.1194E+02
  25.889  0.9675E-01  0.1194E+02
  25.899  0.9547E-01  0.1194E+02
  25.909  0.9418E-01  0.1194E+02
  25.919  0.9288E-01  0.1194E+02
  25.929  0.9157E-01  0.1194E+02
  25.939  0.9024E-01  0.1194E+02
  25.949  0.8890E-01  0.1194E+02
  25.959  0.8756E-01  0.1194E+02
  25.969  0.8623E-01  0.1194E+02
  25.979  0.8490E-01  0.1194E+02
  25.989  0.8359E-01  0.1195E+02
  25.999  0.8228E-01  0.1195E+02
  26.009  0.8099E-01  0.1195E+02
  26.019  0.7970E-01  0.1195E+02
  26.029  0.7842E-01  0.1195E+02
  26.039  0.7715E-01  0.1195E+02
  26.049  0.7588E-01  0.1195E+02
  26.059  0.7463E-01  0.1195E+02
  26.069  0.7338E-01  0.1195E+02
  26.079  0.7214E-01  0.1195E+02
  26.089  0.7090E-01  0.1195E+02
  26.099  0.6968E-01  0.1195E+02
  26.109  0.6846E-01  0.1195E+02
  26.119  0.6725E-01  0.1196E+02
  26.129  0.6605E-01  0.1196E+02
  26.139  0.6485E-01  0.1196E+02
  26.149  0.6366E-01  0.1196E+02
  26.159  0.6249E-01  0.1196E+02
  26.169  0.6135E-01  0.1196E+02
  26.179  0.6024E-01  0.1196E+02
  26.189  0.5916E-01  0.1196E+02
  26.199  0.5811E-01  0.1196E+02
  26.209  0.5709E-01  0.1196E+02
  26.219  0.5610E-01  0.1196E+02
  26.229  0.5513E-01  0.1196E+02
  26.239  0.5420E-01  0.1196E+02
  26.249  0.5329E-01  0.1196E+02
  26.259  0.5241E-01  0.1196E+02
  26.269  0.5156E-01  0.1196E+02
  26.279  0.5073E-01  0.1196E+02
  26.289  0.4990E-01  0.1197E+02
  26.299  0.4909E-01  0.1197E+02
  26.309  0.4828E-01  0.1197E+02
  26.319  0.4748E-01  0.1197E+02
  26.329  0.4668E-01  0.1197E+02
  26.339  0.4590E-01  0.1197E+02
  26.349  0.4513E-01  0.1197E+02
  26.359  0.4436E-01  0.1197E+02
  26.369  0.4361E-01  0.1197E+02
  26.379  0.4230E-01  0.1197E+02
  26.389  0.4078E-01  0.1197E+02
  26.399  0.3934E-01  0.1197E+02
  26.409  0.3799E-01  0.1197E+02
  26.419  0.3757E-01  0.1197E+02
  26.429  0.3794E-01  0.1197E+02
  26.439  0.3827E-01  0.1197E+02
  26.449  0.3857E-01  0.1197E+02
  26.459  0.3884E-01  0.1197E+02
  26.469  0.3908E-01  0.1197E+02
  26.479  0.3929E-01  0.1197E+02
  26.489  0.3946E-01  0.1197E+02
  26.499  0.3960E-01  0.1197E+02
  26.509  0.3970E-01  0.1197E+02
  26.519  0.3977E-01  0.1197E+02
  26.529  0.3978E-01  0.1198E+02
  26.539  0.3969E-01  0.1198E+02
  26.549  0.3950E-01  0.1198E+02
  26.559  0.3924E-01  0.1198E+02
  26.569  0.3898E-01  0.1198E+02
  26.579  0.3875E-01  0.1198E+02
  26.589  0.3854E-01  0.1198E+02
  26.599  0.3827E-01  0.1198E+02
  26.609  0.3792E-01  0.1198E+02
  26.619  0.3751E-01  0.1198E+02
  26.629  0.3707E-01  0.1198E+02
  26.639  0.3664E-01  0.1198E+02
  26.649  0.3621E-01  0.1198E+02
  26.659  0.3578E-01  0.1198E+02
  26.669  0.3535E-01  0.1198E+02
  26.679  0.3492E-01  0.1198E+02
  26.689  0.3450E-01  0.1198E+02
  26.699  0.3407E-01  0.1198E+02
  26.709  0.3365E-01  0.1198E+02
  26.719  0.3324E-01  0.1198E+02
  26.729  0.3282E-01  0.1198E+02
  26.739  0.3241E-01  0.1198E+02
  26.749  0.3200E-01  0.1198E+02
  26.759  0.3160E-01  0.1198E+02
  26.769  0.3119E-01  0.1198E+02
  26.779  0.3079E-01  0.1198E+02
  26.789  0.3040E-01  0.1198E+02
  26.799  0.3000E-01  0.1198E+02
  26.809  0.2961E-01  0.1198E+02
  26.819  0.2922E-01  0.1199E+02
  26.829  0.2884E-01  0.1199E+02
  26.839  0.2845E-01  0.1199E+02
  26.849  0.2807E-01  0.1199E+02
  26.859  0.2769E-01  0.1199E+02
  26.869  0.2732E-01  0.1199E+02
  26.879  0.2694E-01  0.1199E+02
  26.889  0.2657E-01  0.1199E+02
  26.899  0.2620E-01  0.1199E+02
  26.909  0.2584E-01  0.1199E+02
  26.919  0.2547E-01  0.1199E+02
  26.929  0.2511E-01  0.1199E+02
  26.939  0.2476E-01  0.1199E+02
  26.949  0.2440E-01  0.1199E+02
  26.959  0.2405E-01  0.1199E+02
  26.969  0.2370E-01  0.1199E+02
  26.979  0.2335E-01  0.1199E+02
  26.989  0.2300E-01  0.1199E+02
  26.999  0.2266E-01  0.1199E+02
  27.009  0.2232E-01  0.1199E+02
  27.019  0.2199E-01  0.1199E+02
  27.029  0.2165E-01  0.1199E+02
  27.039  0.2132E-01  0.1199E+02
  27.049  0.2099E-01  0.1199E+02
  27.059  0.2066E-01  0.1199E+02
  27.069  0.2034E-01  0.1199E+02
  27.079  0.2002E-01  0.1199E+02
  27.089  0.1970E-01  0.1199E+02
  27.099  0.1938E-01  0.1199E+02
  27.109  0.1907E-01  0.1199E+02
  27.119  0.1875E-01  0.1199E+02
  27.129  0.1845E-01  0.1199E+02
  27.139  0.1814E-01  0.1199E+02
  27.149  0.1784E-01  0.1199E+02
  27.159  0.1753E-01  0.1199E+02
  27.169  0.1724E-01  0.1199E+02
  27.179  0.1694E-01  0.1199E+02
  27.189  0.1665E-01  0.1199E+02
  27.199  0.1636E-01  0.1199E+02
  27.209  0.1607E-01  0.1199E+02
  27.219  0.1578E-01  0.1199E+02
  27.229  0.1550E-01  0.1199E+02
  27.239  0.1522E-01  0.1199E+02
  27.249  0.1494E-01  0.1199E+02
  27.259  0.1467E-01  0.1199E+02
  27.269  0.1439E-01  0.1199E+02
  27.279  0.1412E-01  0.1200E+02
  27.289  0.1386E-01  0.1200E+02
  27.299  0.1359E-01  0.1200E+02
  27.309  0.1333E-01  0.1200E+02
  27.319  0.1307E-01  0.1200E+02
  27.329  0.1281E-01  0.1200E+02
  27.339  0.1256E-01  0.1200E+02
  27.349  0.1230E-01  0.1200E+02
  27.359  0.1206E-01  0.1200E+02
  27.369  0.1181E-01  0.1200E+02
  27.379  0.1156E-01  0.1200E+02
  27.389  0.1132E-01  0.1200E+02
  27.399  0.1108E-01  0.1200E+02
  27.409  0.1085E-01  0.1200E+02
  27.419  0.1061E-01  0.1200E+02
  27.429  0.1038E-01  0.1200E+02
  27.439  0.1015E-01  0.1200E+02
  27.449  0.9926E-02  0.1200E+02
  27.459  0.9703E-02  0.1200E+02
  27.469  0.9482E-02  0.1200E+02
  27.479  0.9263E-02  0.1200E+02
  27.489  0.9047E-02  0.1200E+02
  27.499  0.8834E-02  0.1200E+02
  27.509  0.8623E-02  0.1200E+02
  27.519  0.8415E-02  0.1200E+02
  27.529  0.8210E-02  0.1200E+02
  27.539  0.8007E-02  0.1200E+02
  27.549  0.7806E-02  0.1200E+02
  27.559  0.7608E-02  0.1200E+02
  27.569  0.7413E-02  0.1200E+02
  27.579  0.7221E-02  0.1200E+02
  27.589  0.7031E-02  0.1200E+02
  27.599  0.6843E-02  0.1200E+02
  27.609  0.6658E-02  0.1200E+02
  27.619  0.6476E-02  0.1200E+02
  27.629  0.6296E-02  0.1200E+02
  27.639  0.6119E-02  0.1200E+02
  27.649  0.5945E-02  0.1200E+02
  27.659  0.5773E-02  0.1200E+02
  27.669  0.5603E-02  0.1200E+02
  27.679  0.5436E-02  0.1200E+02
  27.689  0.5272E-02  0.1200E+02
  27.699  0.5111E-02  0.1200E+02
  27.709  0.4952E-02  0.1200E+02
  27.719  0.4795E-02  0.1200E+02
  27.729  0.4641E-02  0.1200E+02
  27.739  0.4490E-02  0.1200E+02
  27.749  0.4341E-02  0.1200E+02
  27.759  0.4195E-02  0.1200E+02
